Jaz Data File
++++++++++++++++++++++++++++++++++++
Date: Sun Feb 19 19:25:37 2023
User: jaz
Dark Spectrum Present: Yes
Reference Spectrum Present: Yes
Processed Spectrum Present: Yes
Spectrometers: JAZA2503
Integration Time (usec): 88500 (JAZA2503)
Spectra Averaged: 1 (JAZA2503)
Boxcar Smoothing: 0 (JAZA2503)
Correct for Electrical Dark: No (JAZA2503)
Strobe/Lamp Enabled: Yes (JAZA2503)
Correct for Detector Non-linearity: No (JAZA2503)
Correct for Stray Light: No (JAZA2503)
Number of Pixels in Processed Spectrum: 2048
>>>>>Begin Processed Spectral Data<<<<<
W	D	R	S	P
189.466537	0.000000	0.000000	0.000000	0.000000
189.851624	0.000000	0.000000	0.000000	0.000000
190.236694	1164.817261	1113.197266	1171.550293	-13.043458
190.621719	1144.618164	1182.772095	1193.993774	129.411591
191.006714	1205.215576	1196.238159	1155.839844	549.999329
191.391693	1115.441528	1218.681641	1173.794678	56.521782
191.776627	1153.595459	1220.926025	1149.106812	-6.666582
192.161530	1245.613770	1162.572876	1158.084229	105.405342
192.546402	1128.907715	1140.129395	1128.907715	0.000000
192.931259	1205.215576	1182.772095	1117.685913	390.000366
193.316071	1227.659058	1162.572876	1211.948608	24.137918
193.700851	1115.441528	1178.283325	1151.351196	57.142967
194.085617	1153.595459	1196.238159	1198.482544	105.263237
194.470337	1155.839844	1193.993774	1196.238159	105.882446
194.855026	1151.351196	1113.197266	1211.948608	-158.823517
195.239685	1149.106812	1160.328613	1178.283325	259.998474
195.624313	1270.301636	1185.016357	1225.414673	52.631550
196.008911	1137.885010	1178.283325	1214.192993	188.889023
196.393494	1205.215576	1187.260742	1198.482544	37.499828
196.778030	1146.862427	1149.106812	1189.505127	1899.972778
197.162521	1151.351196	1200.726807	1106.464233	-90.909180
197.546982	1225.414673	1140.129395	1167.061646	68.420982
197.931442	1182.772095	1151.351196	1182.772095	-0.000000
198.315857	1135.640747	1223.170288	1158.084229	25.641037
198.700241	1153.595459	1178.283325	1119.930298	-136.363190
199.084595	1196.238159	1151.351196	1178.283325	40.000111
199.468918	1160.328613	1202.971191	1182.772095	52.631622
199.853210	1133.396362	1153.595459	1164.817261	155.555954
200.237473	1200.726807	1178.283325	1122.174561	350.000275
200.621704	1189.505127	1162.572876	1135.640747	199.999542
201.005890	1164.817261	1236.636475	1193.993774	40.624943
201.390060	1158.084229	1281.523438	1214.192993	45.454571
201.774200	1144.618164	1140.129395	1169.305908	-549.989136
202.158310	1092.998047	1169.305908	1164.817261	94.117714
202.542374	1137.885010	1146.862427	1227.659058	999.998657
202.926422	1133.396362	1220.926025	1171.550293	43.589714
203.310425	1126.663330	1176.039063	1232.147705	213.636078
203.694397	1167.061646	1198.482544	1185.016357	57.142578
204.078369	1110.952881	1189.505127	1164.817261	68.571404
204.462280	1126.663330	1238.880737	1146.862427	17.999968
204.846161	1113.197266	1185.016357	1146.862427	46.874947
205.230026	1131.151978	1227.659058	1198.482544	69.767487
205.613861	1128.907715	1090.753784	1142.373779	-35.294041
205.997650	1149.106812	1207.459839	1131.151978	-30.769327
206.381409	1207.459839	1173.794678	1158.084229	146.666794
206.765137	1151.351196	1169.305908	1128.907715	-125.000511
207.148834	1126.663330	1155.839844	1162.572876	123.076889
207.532501	1160.328613	1182.772095	1137.885010	-100.000542
207.916138	1137.885010	1178.283325	1142.373779	11.111279
208.299744	1104.219849	1162.572876	1185.016357	138.461548
208.683319	1185.016357	1250.102539	1169.305908	-24.137918
209.066879	1196.238159	1247.858154	1193.993774	-4.347898
209.450378	1126.663330	1238.880737	1155.839844	25.999989
209.833847	1133.396362	1243.369507	1133.396362	0.000000
210.217300	1106.464233	1173.794678	1182.772095	113.333366
210.600723	1142.373779	1149.106812	1167.061646	366.667877
210.984100	1140.129395	1169.305908	1176.039063	123.077309
211.367462	1090.753784	1151.351196	1104.219849	22.222178
211.750793	1133.396362	1220.926025	1155.839844	25.641001
212.134079	1187.260742	1146.862427	1173.794678	33.333233
212.517334	1117.685913	1160.328613	1200.726807	194.736481
212.900574	1158.084229	1178.283325	1115.441528	-211.111923
213.283768	1167.061646	1115.441528	1117.685913	95.652115
213.666931	1176.039063	1265.812988	1162.572876	-15.000109
214.050079	1180.527710	1160.328613	1101.975464	388.889893
214.433182	1173.794678	1137.885010	1189.505127	-43.749916
214.816238	1149.106812	1252.346924	1155.839844	6.521721
215.199280	1176.039063	1198.482544	1133.396362	-190.000381
215.582291	1142.373779	1225.414673	1169.305908	32.432369
215.965271	1146.862427	1173.794678	1117.685913	-108.332993
216.348206	1187.260742	1193.993774	1151.351196	-533.333923
216.731140	1176.039063	1155.839844	1155.839844	100.000000
217.113998	1110.952881	1218.681641	1187.260742	70.833321
217.496841	1092.998047	1180.527710	1155.839844	71.794861
217.879684	1133.396362	1216.437256	1149.106812	18.918930
218.262466	1149.106812	1173.794678	1124.418945	-100.000000
218.645218	1167.061646	1225.414673	1142.373779	-42.307774
219.027939	1158.084229	1232.147705	1185.016357	36.363575
219.410629	1196.238159	1173.794678	1149.106812	210.000168
219.793289	1097.486816	1173.794678	1153.595459	73.529305
220.175934	1137.885010	1160.328613	1151.351196	60.000111
220.558533	1193.993774	1216.437256	1153.595459	-180.000214
220.941071	1090.753784	1216.437256	1113.197266	17.857147
221.323608	1115.441528	1142.373779	1176.039063	224.999893
221.706116	1101.975464	1173.794678	1254.591187	212.499847
222.088593	1144.618164	1164.817261	1151.351196	33.333332
222.471024	1135.640747	1162.572876	1137.885010	8.333031
222.853424	1135.640747	1167.061646	1173.794678	121.428513
223.235794	1104.219849	1223.170288	1216.437256	94.339630
223.618134	1146.862427	1290.500854	1137.885010	-6.250010
224.000443	1185.016357	1200.726807	1142.373779	-271.428131
224.382736	1108.708496	1167.061646	1160.328613	88.461578
224.764969	1142.373779	1281.523438	1144.618164	1.612929
225.147202	1131.151978	1259.079956	1216.437256	66.666634
225.529373	1164.817261	1229.903442	1113.197266	-79.310219
225.911530	1113.197266	1281.523438	1191.749390	46.666615
226.293625	1191.749390	1229.903442	1196.238159	11.764856
226.675720	1218.681641	1243.369507	1171.550293	-190.908951
227.057785	1124.418945	1286.012085	1131.151978	4.166657
227.439804	1099.731079	1241.125122	1126.663330	19.047655
227.821793	1137.885010	1241.125122	1137.885010	0.000000
228.203751	1142.373779	1263.568604	1155.839844	11.111089
228.585663	1101.975464	1371.297363	1113.197266	4.166687
228.967560	1104.219849	1297.233887	1151.351196	24.418612
229.349426	1169.305908	1333.143433	1216.437256	28.767126
229.731247	1097.486816	1366.808716	1167.061646	25.833336
230.113052	1124.418945	1427.406128	1211.948608	28.888899
230.494827	1050.355469	1568.800171	1196.238159	28.138525
230.876541	1155.839844	1654.085449	1176.039063	4.054069
231.258240	1209.704224	1642.863647	1146.862427	-14.507775
231.639923	1122.174561	1600.221069	1084.020630	-7.981217
232.021545	1158.084229	1555.333984	1151.351196	-1.694912
232.403137	1144.618164	1532.890503	1171.550293	6.936402
232.784729	1113.197266	1532.890503	1133.396362	4.812824
233.166275	1131.151978	1494.736572	1180.527710	13.580259
233.547760	1090.753784	1472.293091	1140.129395	12.941159
233.929230	1115.441528	1472.293091	1117.685913	0.628941
234.310684	1095.242432	1429.650513	1140.129395	13.422811
234.692078	1227.659058	1438.627808	1153.595459	-35.106430
235.073471	1164.817261	1461.071411	1160.328613	-1.515134
235.454819	1122.174561	1483.514893	1124.418945	0.621128
235.836121	1122.174561	1467.804443	1135.640747	3.896129
236.217392	1187.260742	1382.519165	1115.441528	-36.781620
236.598663	1209.704224	1431.894775	1162.572876	-21.212130
236.979874	1187.260742	1479.026123	1106.464233	-27.692287
237.361038	1209.704224	1395.985229	1122.174561	-46.987968
237.742203	1200.726807	1436.383545	1146.862427	-22.857136
238.123322	1223.170288	1562.067017	1185.016357	-11.258277
238.504395	1153.595459	1449.849609	1189.505127	12.121237
238.885452	1140.129395	1514.935791	1173.794678	8.982046
239.266479	1196.238159	1512.691406	1097.486816	-31.205666
239.647446	1137.885010	1465.560059	1191.749390	16.438353
240.028427	1180.527710	1553.089722	1185.016357	1.204805
240.409348	1178.283325	1611.442749	1167.061646	-2.590658
240.790222	1066.065918	1559.822754	1115.441528	9.999985
241.171082	1151.351196	1629.397583	1108.708496	-8.920201
241.551910	1155.839844	1683.261963	1160.328613	0.851077
241.932693	1119.930298	1600.221069	1113.197266	-1.401866
242.313446	1209.704224	1703.461060	1164.817261	-9.090904
242.694199	1104.219849	1811.189819	1113.197266	1.269844
243.074875	1189.505127	1898.719482	1176.039063	-1.898730
243.455536	1187.260742	2111.932617	1167.061646	-2.184461
243.836151	1142.373779	2194.973633	1097.486816	-4.264390
244.216766	1176.039063	2266.792725	1209.704224	3.086413
244.597321	1149.106812	2334.123291	1176.039063	2.272732
244.977859	1229.903442	2291.480469	1155.839844	-6.976752
245.358353	1142.373779	2201.706543	1191.749390	4.661010
245.738815	1126.663330	2132.131836	1205.215576	7.812502
246.119232	1110.952881	2026.647339	1214.192993	11.274515
246.499649	1133.396362	2051.335205	1216.437256	9.046452
246.880020	1164.817261	2026.647339	1196.238159	3.645834
247.260330	1160.328613	2069.290039	1164.817261	0.493822
247.640656	1126.663330	2318.412842	1227.659058	8.474577
248.020905	1095.242432	2612.422607	1232.147705	9.023666
248.401138	1164.817261	2901.943604	1182.772095	1.033594
248.781342	1200.726807	3117.401123	1193.993774	-0.351287
249.161514	1171.550293	3204.930664	1200.726807	1.434877
249.541641	1171.550293	3090.468994	1232.147705	3.157894
249.921753	1151.351196	2967.029785	1131.151978	-1.112489
250.301819	1088.509399	2731.373047	1189.505127	6.147542
250.681854	1097.486816	2598.956543	1193.993774	6.427499
251.061844	1050.355469	2374.521484	1223.170288	13.050842
251.441833	1200.726807	2331.878906	1238.880737	3.373015
251.821762	1149.106812	2168.041260	1180.527710	3.083702
252.201660	1158.084229	2076.022949	1214.192993	6.112474
252.581558	1158.084229	2044.602173	1178.283325	2.278476
252.961380	1124.418945	2183.751709	1164.817261	3.813562
253.341187	1135.640747	2262.303955	1198.482544	5.577692
253.720947	1128.907715	2334.123291	1128.907715	0.000000
254.100693	1144.618164	2376.765869	1205.215576	4.918032
254.480392	1119.930298	2264.548340	1185.016357	5.686269
254.860077	1084.020630	2174.774414	1146.862427	5.761318
255.239716	1164.817261	2125.398682	1113.197266	-5.373828
255.619308	1151.351196	2069.290039	1220.926025	7.579463
255.998886	1151.351196	1999.715210	1149.106812	-0.264554
256.378418	1144.618164	2008.692627	1182.772095	4.415584
256.757904	1146.862427	2031.136108	1225.414673	8.883250
257.137421	1128.907715	2051.335205	1158.084229	3.163014
257.516846	1193.993774	2120.909912	1202.971191	0.968525
257.896240	1119.930298	2019.914307	1169.305908	5.486277
258.275604	1185.016357	2177.018799	1119.930298	-6.561079
258.654968	1162.572876	2201.706543	1211.948608	4.751625
259.034271	1137.885010	2289.236328	1191.749390	4.678362
259.413513	1169.305908	2325.145752	1214.192993	3.883504
259.792816	1252.346924	2459.806885	1155.839844	-7.992570
260.171997	1158.084229	2693.218994	1158.084229	0.000000
260.551147	1164.817261	2906.432373	1211.948608	2.706186
260.930267	1182.772095	3204.930664	1202.971191	0.998888
261.309418	1155.839844	3617.890869	1155.839844	0.000000
261.688507	1200.726807	3707.665039	1214.192993	0.537157
262.067535	1193.993774	3617.890869	1182.772095	-0.462960
262.446503	1200.726807	3559.537842	1216.437256	0.666033
262.825500	1178.283325	3261.039551	1164.817261	-0.646550
263.204437	1068.310181	3222.885498	1162.572876	4.375001
263.583313	1155.839844	2962.541016	1207.459839	2.857141
263.962189	1151.351196	2915.409668	1196.238159	2.544528
264.341064	1180.527710	2695.463379	1158.084229	-1.481481
264.719849	1164.817261	2533.870361	1191.749390	1.967209
265.098602	1153.595459	2558.558105	1131.151978	-1.597443
265.477356	1119.930298	2453.073730	1176.039063	4.208757
265.856049	1142.373779	2569.779785	1178.283325	2.515721
266.234711	1133.396362	2488.983398	1187.260742	3.973510
266.613342	1108.708496	2437.363281	1176.039063	5.067574
266.991974	1092.998047	2598.956543	1185.016357	6.110282
267.370544	1108.708496	2661.798096	1229.903442	7.803474
267.749084	1104.219849	2668.531250	1218.681641	7.317072
268.127563	1185.016357	2695.463379	1196.238159	0.742946
268.506012	1176.039063	2765.038330	1220.926025	2.824857
268.884491	1220.926025	2935.608887	1250.102539	1.701569
269.262848	1146.862427	2915.409668	1245.613770	5.583755
269.641235	1167.061646	2962.541016	1209.704224	2.374997
270.019562	1218.681641	2841.346191	1214.192993	-0.276622
270.397888	1133.396362	2913.165283	1081.776367	-2.900376
270.776123	1115.441528	2962.541016	1205.215576	4.860271
271.154358	1187.260742	2949.074951	1169.305908	-1.019111
271.532562	1155.839844	2955.807861	1191.749390	1.995010
271.910706	1133.396362	2991.717529	1187.260742	2.898551
272.288879	1214.192993	3310.415039	1216.437256	0.107062
272.666962	1119.930298	3330.614258	1180.527710	2.741116
273.045013	1191.749390	3510.162109	1220.926025	1.258475
273.423035	1164.817261	3510.162109	1169.305908	0.191385
273.801025	1133.396362	3373.256836	1169.305908	1.603205
274.179016	1124.418945	3469.763916	1270.301636	6.220095
274.556915	1135.640747	3472.008301	1209.704224	3.170027
274.934814	1088.509399	3537.094482	1234.392090	5.957837
275.312653	1104.219849	3395.700439	1151.351196	2.056808
275.690491	1189.505127	3294.704590	1110.952881	-3.731345
276.068268	1126.663330	3200.442139	1176.039063	2.380955
276.446014	1171.550293	3216.152344	1227.659058	2.744239
276.823761	1133.396362	3308.170898	1169.305908	1.651185
277.201477	1106.464233	3281.238525	1178.283325	3.302370
277.579102	1135.640747	3404.677734	1135.640747	0.000000
277.956726	1115.441528	3303.682129	1173.794678	2.666670
278.334290	1137.885010	3236.351563	1167.061646	1.390379
278.711853	1209.704224	3357.546387	1209.704224	0.000000
279.089355	1149.106812	3362.035156	1182.772095	1.521300
279.466858	1176.039063	3341.835938	1178.283325	0.103623
279.844299	1187.260742	3337.347412	1196.238159	0.417537
280.221710	1142.373779	3362.035156	1245.613770	4.651159
280.599091	1187.260742	3382.234375	1155.839844	-1.431493
280.976440	1153.595459	3395.700439	1216.437256	2.802804
281.353790	1124.418945	3350.813477	1171.550293	2.116936
281.731018	1164.817261	3530.361328	1185.016357	0.853888
282.108276	1137.885010	3602.180420	1218.681641	3.278691
282.485474	1164.817261	3730.108398	1256.835571	3.587052
282.862671	1200.726807	3781.728516	1218.681641	0.695654
283.239807	1110.952881	3923.122559	1310.699951	7.102952
283.616882	1209.704224	4073.493896	1259.079956	1.724140
283.993988	1088.509399	4273.240723	1265.812988	5.567301
284.371002	1144.618164	4228.354004	1247.858154	3.347887
284.747986	1117.685913	4165.512207	1216.437256	3.240058
285.125000	1182.772095	4154.290527	1214.192993	1.057402
285.501923	1090.753784	4194.688965	1223.170288	4.266085
285.878815	1185.016357	4273.240723	1187.260742	0.072676
286.255646	1200.726807	4347.304688	1211.948608	0.356635
286.632507	1171.550293	4605.404785	1211.948608	1.176471
287.009308	1144.618164	4670.490723	1243.369507	2.800763
287.386078	1104.219849	4753.531738	1241.125122	3.751537
287.762787	1088.509399	4915.125000	1196.238159	2.815249
288.139465	1110.952881	4928.590820	1234.392090	3.233392
288.516113	1068.310181	4883.704102	1220.926025	4.000002
288.892731	1117.685913	4666.001953	1207.459839	2.530043
289.269379	1117.685913	4762.509277	1223.170288	2.894088
289.645905	1151.351196	4661.513184	1272.546021	3.452685
290.022430	1185.016357	4762.509277	1191.749390	0.188205
290.398895	1155.839844	4960.011719	1198.482544	1.120946
290.775330	1122.174561	4946.545898	1288.256470	4.342724
291.151764	1176.039063	5022.853516	1292.745117	3.033836
291.528137	1160.328613	5137.315430	1330.899048	4.288937
291.904510	1200.726807	5496.411133	1292.745117	2.142111
292.280823	1167.061646	5592.918457	1292.745117	2.839755
292.657074	1151.351196	5417.858887	1319.677368	3.945292
293.033325	1142.373779	5597.407227	1265.812988	2.770781
293.409515	1122.174561	5678.203613	1268.057373	3.201973
293.785706	1122.174561	5619.850586	1243.369507	2.694613
294.161865	1110.952881	5536.809570	1193.993774	1.876267
294.537964	1160.328613	5622.094727	1211.948608	1.156941
294.914032	1063.821533	5913.860352	1216.437256	3.146691
295.290039	1137.885010	5913.860352	1256.835571	2.490602
295.666046	1124.418945	6315.598633	1292.745117	3.242542
296.041992	1236.636475	6445.770996	1191.749390	-0.861699
296.417969	1158.084229	6845.265137	1265.812988	1.894238
296.793854	1265.812988	6838.532227	1259.079956	-0.120821
297.169708	1142.373779	7087.654785	1353.342651	3.548510
297.545502	1133.396362	7251.492188	1306.211304	2.824652
297.921295	1191.749390	7781.158691	1330.899048	2.111717
298.297028	1153.595459	8045.992188	1317.432983	2.377076
298.672760	1162.572876	8111.078125	1333.143433	2.454781
299.048492	1211.948608	8214.318359	1353.342651	2.019231
299.424133	1164.817261	8191.874512	1294.989502	1.852443
299.799744	1135.640747	7870.932617	1297.233887	2.399200
300.175293	1149.106812	7918.063965	1294.989502	2.155172
300.550842	1097.486816	7556.724121	1330.899048	3.613619
300.926361	1115.441528	7386.153320	1328.654785	3.400144
301.301788	1185.016357	7316.578613	1279.279053	1.537336
301.677277	1198.482544	7202.116699	1229.903442	0.523365
302.052704	1214.192993	7051.745117	1281.523438	1.153402
302.428040	1238.880737	7103.365234	1324.166016	1.454267
302.803375	1142.373779	7148.252441	1220.926025	1.307923
303.178650	1149.106812	7029.301758	1281.523438	2.251909
303.553955	1115.441528	7027.057617	1351.098267	3.986334
303.929169	1131.151978	6961.971191	1290.500854	2.732873
304.304352	1160.328613	6672.450195	1263.568604	1.872963
304.679504	1162.572876	6735.291992	1308.455566	2.617801
305.054657	1155.839844	6643.273926	1375.786133	4.008181
305.429718	1133.396362	6443.526855	1319.677368	3.508031
305.804779	1124.418945	6564.721680	1333.143433	3.836634
306.179810	1155.839844	6712.848633	1306.211304	2.705978
306.554779	1155.839844	6562.477051	1245.613770	1.660439
306.929718	1146.862427	6468.214355	1229.903442	1.560525
307.304626	1099.731079	6407.617188	1303.966919	3.847781
307.679474	1128.907715	6400.884277	1218.681641	1.702851
308.054321	1205.215576	6418.838867	1286.012085	1.549719
308.429138	1075.043335	6557.988281	1259.079956	3.356529
308.803925	1122.174561	6650.006836	1259.079956	2.476656
309.178680	1167.061646	6764.468750	1272.546021	1.884522
309.553345	1135.640747	7020.324219	1270.301636	2.288328
309.928009	1149.106812	6896.885254	1315.188599	2.889495
310.302643	1191.749390	7141.519043	1220.926025	0.490383
310.677246	1124.418945	7148.252441	1236.636475	1.862892
311.051758	1108.708496	7386.153320	1292.745117	2.931712
311.426300	1209.704224	7435.528809	1326.410400	1.874550
311.800781	1133.396362	7536.524902	1362.319946	3.575183
312.175232	1155.839844	7747.493652	1337.632202	2.757917
312.549652	1140.129395	7624.054199	1238.880737	1.523018
312.924042	1095.242432	7606.099609	1288.256470	2.964495
313.298401	1158.084229	7489.393555	1288.256470	2.056008
313.672699	1191.749390	7500.615234	1263.568604	1.138386
314.046967	1122.174561	7336.777832	1286.012085	2.636331
314.421204	1198.482544	7516.325684	1254.591187	0.888098
314.795380	1160.328613	7345.754883	1299.478271	2.249637
315.169556	1176.039063	7307.601074	1227.659058	0.841873
315.543671	1151.351196	7583.656250	1306.211304	2.407537
315.917786	1137.885010	7428.795898	1330.899048	3.068141
316.291809	1162.572876	7543.257813	1288.256470	1.969751
316.665863	1063.821533	7460.216797	1277.034668	3.333333
317.039856	1160.328613	7285.157715	1241.125122	1.319163
317.413818	1122.174561	7148.252441	1247.858154	2.085662
317.787750	1133.396362	7168.451660	1265.812988	2.194124
318.161591	1113.197266	7166.207031	1274.790405	2.669633
318.535461	1124.418945	7020.324219	1335.387817	3.578227
318.909271	1101.975464	6921.573242	1286.012085	3.162360
319.283020	1162.572876	6865.464355	1315.188599	2.676111
319.656769	1158.084229	6786.912109	1216.437256	1.036682
320.030457	1187.260742	6860.975586	1292.745117	1.859177
320.404144	1164.817261	6863.220215	1270.301636	1.851122
320.777740	1146.862427	7116.831543	1272.546021	2.105264
321.151337	1061.577148	7204.360840	1310.699951	4.055536
321.524902	1173.794678	6710.604004	1270.301636	1.743007
321.898407	1198.482544	6843.020996	1245.613770	0.834988
322.271881	1209.704224	7013.591309	1268.057373	1.005415
322.645355	1135.640747	7031.546387	1274.790405	2.360106
323.018799	1185.016357	7013.591309	1234.392090	0.847132
323.392151	1153.595459	7045.012207	1351.098267	3.352382
323.765503	1131.151978	7101.121094	1308.455566	2.969925
324.138794	1117.685913	7260.469727	1277.034668	2.594080
324.512054	1115.441528	7558.968262	1207.459839	1.428074
324.885284	1104.219849	7915.819824	1286.012085	2.668862
325.258484	1158.084229	8084.145996	1362.319946	2.948800
325.631683	1153.595459	8340.001953	1339.876465	2.592130
326.004761	1097.486816	8524.038086	1310.699951	2.870958
326.377869	1110.952881	8259.205078	1283.767822	2.417583
326.750916	1144.618164	8499.350586	1315.188599	2.319193
327.123932	1097.486816	8396.110352	1366.808716	3.690037
327.496948	1133.396362	8515.060547	1310.699951	2.401946
327.869843	1158.084229	8667.676758	1310.699951	2.032277
328.242767	1122.174561	8429.775391	1303.966919	2.487716
328.615631	1171.550293	8562.192383	1330.899048	2.156088
328.988464	1176.039063	8315.313477	1310.699951	1.886199
329.361267	1160.328613	8256.960938	1294.989502	1.897532
329.734009	1122.174561	8189.630371	1342.120850	3.112100
330.106781	1169.305908	8138.010254	1292.745117	1.771337
330.479431	1182.772095	8140.254883	1294.989502	1.612902
330.852112	1151.351196	7974.172852	1283.767822	1.940790
331.224731	1075.043335	8052.725098	1337.632202	3.763268
331.597321	1140.129395	8010.082520	1286.012085	2.123489
331.969879	1151.351196	8070.679688	1281.523438	1.881284
332.342377	1153.595459	8007.837891	1270.301636	1.702685
332.714874	1182.772095	8057.213867	1312.944336	1.893568
333.087280	1133.396362	8113.322266	1277.034668	2.057877
333.459686	1155.839844	8281.648438	1303.966919	2.078741
333.832062	1099.731079	8420.798828	1234.392090	1.839363
334.204376	1164.817261	8667.676758	1263.568604	1.316183
334.576660	1146.862427	8573.414063	1254.591187	1.450589
334.948914	1158.084229	8779.894531	1299.478271	1.855124
335.321136	1205.215576	8732.762695	1265.812988	0.805009
335.693298	1137.885010	8793.360352	1265.812988	1.671065
336.065460	1115.441528	8672.165039	1252.346924	1.811703
336.437561	1185.016357	8777.649414	1281.523438	1.271062
336.809631	1149.106812	8548.726563	1297.233887	2.001820
337.181702	1122.174561	8928.021484	1281.523438	2.041404
337.553650	1149.106812	8730.518555	1362.319946	2.812315
337.925659	1155.839844	8963.930664	1342.120850	2.385743
338.297577	1090.753784	8743.984375	1270.301636	2.346040
338.669464	1151.351196	8730.518555	1277.034668	1.658275
339.041290	1117.685913	8589.125000	1281.523438	2.192851
339.413116	1142.373779	8609.323242	1283.767822	1.893599
339.784912	1101.975464	8436.508789	1324.166016	3.029376
340.156616	1185.016357	8259.205078	1288.256470	1.459392
340.528351	1115.441528	8308.581055	1256.835571	1.965679
340.900024	1180.527710	8281.648438	1301.722534	1.706700
341.271637	1153.595459	8328.780273	1225.414673	1.000939
341.643219	1169.305908	8360.201172	1218.681641	0.686642
342.014801	1151.351196	8869.667969	1236.636475	1.104972
342.386322	1187.260742	8761.939453	1303.966919	1.540741
342.757782	1142.373779	9015.550781	1299.478271	1.995440
343.129272	1151.351196	8984.129883	1234.392090	1.060172
343.500671	1146.862427	9228.763672	1346.609497	2.471536
343.872040	1122.174561	9314.049805	1353.342651	2.821919
344.243378	1086.265015	9682.123047	1402.718262	3.681462
344.614655	1153.595459	9742.719727	1395.985229	2.822055
344.985962	1097.486816	9785.362305	1333.143433	2.712477
345.357147	1205.215576	10083.861328	1272.546021	0.758341
345.728363	1185.016357	10357.671875	1297.233887	1.223392
346.099518	1070.554565	10490.087891	1270.301636	2.120562
346.470642	1137.885010	10299.318359	1315.188599	1.935326
346.841705	1149.106812	10469.889648	1259.079956	1.179870
347.212708	1185.016357	10404.802734	1297.233887	1.217138
347.583740	1124.418945	10469.889648	1274.790405	1.609030
347.954681	1202.971191	10258.919922	1281.523438	0.867410
348.325623	1176.039063	9980.621094	1283.767822	1.223553
348.696533	1119.930298	10007.553711	1364.564331	2.752525
349.067383	1124.418945	9980.621094	1270.301636	1.647238
349.438232	1097.486816	9670.901367	1346.609497	2.905758
349.808960	1160.328613	9769.652344	1286.012085	1.459853
350.179749	1128.907715	9774.140625	1335.387817	2.388370
350.550446	1151.351196	9964.910156	1339.876465	2.139037
350.921112	1162.572876	9931.245117	1335.387817	1.970822
351.291748	1128.907715	10023.263672	1319.677368	2.144840
351.662354	1182.772095	10018.775391	1301.722534	1.346202
352.032928	1207.459839	9913.291016	1321.921753	1.314773
352.403412	1171.550293	9982.865234	1319.677368	1.681101
352.773926	1185.016357	10005.308594	1198.482544	0.152673
353.144379	1119.930298	10216.277344	1353.342651	2.566001
353.514801	1099.731079	10108.548828	1330.899048	2.566019
353.885162	1191.749390	10130.992188	1339.876465	1.657043
354.255493	1182.772095	10350.938477	1241.125122	0.636474
354.625824	1187.260742	10869.383789	1274.790405	0.904034
354.996063	1146.862427	10961.401367	1362.319946	2.195289
355.366302	1167.061646	11358.651367	1326.410400	1.563532
355.736450	1223.170288	11109.528320	1402.718262	1.816118
356.106598	1180.527710	11688.571289	1324.166016	1.366937
356.476746	1160.328613	11650.416992	1333.143433	1.647411
356.846771	1101.975464	12117.241211	1389.252197	2.607987
357.216858	1142.373779	12135.196289	1351.098267	1.898734
357.586823	1122.174561	12465.115234	1366.808716	2.156708
357.956818	1079.531982	12743.415039	1319.677368	2.058880
358.326721	1169.305908	13194.529297	1326.410400	1.306458
358.696625	1135.640747	13879.055664	1458.827026	2.536104
359.066498	1133.396362	14139.400391	1398.229614	2.036238
359.436279	1088.509399	14482.786133	1413.940063	2.429625
359.806091	1180.527710	14399.745117	1384.763428	1.544991
360.175812	1151.351196	14011.472656	1402.718262	1.954624
360.545532	1117.685913	14065.336914	1400.473877	2.184087
360.915192	1160.328613	14415.455078	1328.654785	1.269895
361.284760	1140.129395	14570.315430	1413.940063	2.038771
361.654388	1207.459839	15281.774414	1418.428711	1.498964
362.023895	1198.482544	15587.005859	1360.075684	1.123070
362.393463	1176.039063	16210.934570	1344.365234	1.119570
362.762909	1110.952881	17241.091797	1425.161743	1.947961
363.132355	1126.663330	17741.580078	1461.071411	2.012698
363.501770	1243.369507	17988.458984	1404.962646	0.965018
363.871124	1243.369507	17420.638672	1382.519165	0.860155
364.240479	1115.441528	16480.255859	1438.627808	2.103418
364.609711	1216.437256	15928.146484	1391.496582	1.189932
364.979004	1196.238159	15631.892578	1447.605225	1.741293
365.348206	1162.572876	14965.320313	1445.360962	2.048781
365.717377	1144.618164	14428.920898	1382.519165	1.790843
366.086517	1092.998047	14217.952148	1407.207031	2.393982
366.455597	1155.839844	13564.846680	1400.473877	1.971423
366.824677	1092.998047	13192.285156	1306.211304	1.762197
367.193665	1124.418945	12970.094727	1382.519165	2.178856
367.562683	1117.685913	12581.822266	1387.007813	2.349256
367.931610	1090.753784	12503.269531	1321.921753	2.025565
368.300537	1193.993774	12485.314453	1360.075684	1.470881
368.669434	1144.618164	12465.115234	1263.568604	1.050753
369.038239	1167.061646	12067.866211	1297.233887	1.194153
369.407074	1135.640747	12056.644531	1391.496582	2.342787
369.775787	1164.817261	11571.864258	1330.899048	1.595859
370.144501	1164.817261	11684.082031	1321.921753	1.493493
370.513184	1088.509399	11627.973633	1393.740845	2.896081
370.881836	1180.527710	11607.774414	1337.632202	1.506673
371.250458	1202.971191	11773.856445	1342.120850	1.316348
371.618988	1106.464233	11535.955078	1337.632202	2.216484
371.987549	1218.681641	11841.186523	1337.632202	1.119798
372.356049	1162.572876	11901.784180	1348.853882	1.734587
372.724487	1196.238159	11868.119141	1330.899048	1.261829
373.092896	1162.572876	12186.816406	1369.052979	1.872964
373.461273	1155.839844	12159.883789	1380.274780	2.039568
373.829620	1119.930298	11854.652344	1335.387817	2.007109
374.197906	1050.355469	12029.711914	1274.790405	2.044154
374.566193	1149.106812	12180.083008	1339.876465	1.729399
374.934418	1178.283325	12074.598633	1308.455566	1.194645
375.302612	1084.020630	11937.693359	1288.256470	1.881721
375.670746	1119.930298	12328.209961	1243.369507	1.101322
376.038849	1115.441528	12496.536133	1303.966919	1.656479
376.406952	1142.373779	12628.953125	1360.075684	1.895272
376.774933	1052.599854	12566.111328	1337.632202	2.475633
377.142975	1106.464233	12979.071289	1429.650513	2.722117
377.510925	1185.016357	13374.077148	1299.478271	0.939054
377.878845	1173.794678	13753.372070	1378.030396	1.623550
378.246765	1108.708496	14067.581055	1319.677368	1.627988
378.614563	1128.907715	14435.654297	1335.387817	1.551695
378.982361	1117.685913	14866.569336	1371.297363	1.844597
379.350128	1149.106812	14509.717773	1373.541748	1.679825
379.717865	1110.952881	14449.120117	1366.808716	1.918223
380.085571	1110.952881	14042.893555	1328.654785	1.683443
380.453217	1108.708496	13811.725586	1339.876465	1.819788
380.820862	1137.885010	13668.086914	1420.673096	2.256852
381.188385	1122.174561	13632.177734	1369.052979	1.973448
381.555939	1117.685913	13425.697266	1373.541748	2.078775
381.923431	1171.550293	13470.583984	1382.519165	1.715329
382.290894	1092.998047	13205.750977	1315.188599	1.834352
382.658325	1238.880737	12869.098633	1254.591187	0.135083
383.025696	1137.885010	12817.478516	1420.673096	2.421215
383.393066	1140.129395	12653.640625	1378.030396	2.066277
383.760345	1140.129395	12875.832031	1339.876465	1.702046
384.127625	1110.952881	12956.627930	1380.274780	2.273588
384.494843	1182.772095	13136.175781	1317.432983	1.126549
384.862030	1149.106812	13409.986328	1398.229614	2.031851
385.229187	1160.328613	13751.127930	1342.120850	1.443850
385.596283	1142.373779	13609.733398	1317.432983	1.404140
385.963409	1191.749390	13591.779297	1351.098267	1.285068
386.330383	1160.328613	13457.118164	1360.075684	1.624384
386.697418	1128.907715	13843.146484	1369.052979	1.888790
387.064362	1169.305908	13923.942383	1321.921753	1.196552
387.431274	1149.106812	13959.852539	1404.962646	1.997197
387.798187	1108.708496	14090.024414	1310.699951	1.556017
388.165009	1151.351196	14332.414063	1344.365234	1.464328
388.531830	1119.930298	14532.161133	1378.030396	1.924364
388.898590	1092.998047	14271.816406	1400.473877	2.333106
389.265320	1106.464233	14220.197266	1312.944336	1.574533
389.631989	1068.310181	14451.365234	1364.564331	2.213651
389.998657	1146.862427	14471.563477	1360.075684	1.600135
390.365295	1066.065918	14024.938477	1342.120850	2.130239
390.731812	1126.663330	14529.916992	1389.252197	1.959143
391.098358	1144.618164	14568.071289	1387.007813	1.805718
391.464844	1124.418945	14534.405273	1409.451294	2.125523
391.831329	1124.418945	14785.772461	1373.541748	1.823559
392.197723	1169.305908	14893.501953	1411.695679	1.766149
392.564087	1160.328613	15584.760742	1407.207031	1.711530
392.930450	1171.550293	16011.187500	1416.184326	1.648518
393.296722	1151.351196	16206.446289	1431.894775	1.863446
393.663025	1110.952881	16278.264648	1418.428711	2.027227
394.029236	1133.396362	16258.065430	1355.586914	1.469061
394.395416	1155.839844	16083.006836	1366.808716	1.413322
394.761536	1149.106812	16015.675781	1398.229614	1.675725
395.127625	1162.572876	16217.667969	1472.293091	2.057245
395.493744	1090.753784	16675.515625	1418.428711	2.102534
395.859741	1104.219849	16365.794922	1404.962646	1.970588
396.225769	1124.418945	16610.429688	1411.695679	1.855072
396.591675	1167.061646	16278.264648	1360.075684	1.277291
396.957581	1088.509399	15634.136719	1427.406128	2.329887
397.323486	1115.441528	15450.100586	1308.455566	1.346485
397.689301	1092.998047	15360.326172	1366.808716	1.919145
398.055115	1149.106812	15005.718750	1364.564331	1.554908
398.420807	1162.572876	15001.230469	1409.451294	1.783977
398.786560	1108.708496	15066.316406	1389.252197	2.009970
399.152222	1187.260742	14841.881836	1355.586914	1.232741
399.517883	1164.817261	14415.455078	1353.342651	1.422765
399.883514	1124.418945	14514.207031	1398.229614	2.044922
400.248993	1092.998047	14543.382813	1398.229614	2.269315
400.614563	1155.839844	14671.310547	1413.940063	1.909665
400.980042	1169.305908	14446.875977	1355.586914	1.402975
401.345459	1160.328613	14370.568359	1351.098267	1.444104
401.710846	1151.351196	14446.875977	1353.342651	1.519244
402.076202	1155.839844	14534.405273	1333.143433	1.325281
402.441559	1113.197266	14583.781250	1369.052979	1.899366
402.806824	1196.238159	14718.442383	1391.496582	1.443984
403.172089	1158.084229	14615.202148	1366.808716	1.551034
403.537262	1122.174561	14956.343750	1321.921753	1.443868
403.902435	1171.550293	14853.103516	1431.894775	1.902887
404.267578	1193.993774	15113.448242	1400.473877	1.483392
404.632660	1185.016357	15362.570313	1382.519165	1.393067
404.997742	1153.595459	15690.245117	1387.007813	1.605682
405.362671	1158.084229	16013.431641	1382.519165	1.510802
405.727692	1140.129395	16199.712891	1420.673096	1.862891
406.092621	1162.572876	16403.949219	1371.297363	1.369460
406.457489	1135.640747	16365.794922	1438.627808	1.989389
406.822357	1185.016357	16159.314453	1395.985229	1.408873
407.187134	1153.595459	16334.374023	1505.958374	2.321112
407.551941	1171.550293	16307.441406	1447.605225	1.823843
407.916656	1108.708496	16186.247070	1452.093994	2.277464
408.281342	1155.839844	16249.088867	1404.962646	1.650558
408.645996	1153.595459	16006.699219	1537.379272	2.583863
409.010620	1115.441528	16121.160156	1411.695679	1.974275
409.375214	1182.772095	15822.662109	1485.759155	2.069599
409.739685	1196.238159	15802.462891	1467.804443	1.859250
410.104218	1122.174561	15771.041992	1438.627808	2.160258
410.468658	1200.726807	15679.023438	1427.406128	1.565649
410.833099	1126.663330	16006.699219	1404.962646	1.870287
411.197449	1167.061646	15961.811523	1490.247925	2.184466
411.561768	1113.197266	16641.849609	1494.736572	2.457002
411.926117	1135.640747	16769.777344	1456.582642	2.052828
412.290344	1155.839844	16540.853516	1425.161743	1.750547
412.654541	1128.907715	16758.556641	1398.229614	1.723148
413.018738	1191.749390	16581.251953	1456.582642	1.720869
413.382874	1140.129395	16498.210938	1413.940063	1.782844
413.746979	1149.106812	16208.690430	1476.781860	2.175857
414.110992	1128.907715	16044.852539	1416.184326	1.925970
414.475037	1119.930298	16233.377930	1440.872192	2.123552
414.838989	1126.663330	16368.039063	1483.514893	2.341334
415.202972	1106.464233	16664.292969	1447.605225	2.192729
415.566833	1178.283325	16605.939453	1427.406128	1.614781
415.930695	1182.772095	16859.550781	1472.293091	1.846814
416.294556	1164.817261	16706.935547	1557.578369	2.527076
416.658295	1144.618164	17236.601563	1481.270508	2.092050
417.022064	1122.174561	17454.304688	1481.270508	2.198709
417.385712	1167.061646	17833.599609	1519.424438	2.114193
417.749420	1214.192993	17966.015625	1454.338257	1.433547
418.113037	1191.749390	18201.671875	1593.487915	2.361789
418.476593	1126.663330	18468.750000	1575.533203	2.588327
418.840149	1164.817261	19108.388672	1548.600952	2.138837
419.203644	1122.174561	19653.765625	1514.935791	2.119414
419.567108	1137.885010	20291.162109	1510.447021	1.945161
419.930511	1092.998047	21108.105469	1609.198364	2.579053
420.293915	1144.618164	21862.205078	1629.397583	2.339942
420.657257	1108.708496	22405.337891	1622.664551	2.413321
421.020508	1140.129395	23092.109375	1701.216675	2.555976
421.383820	1187.260742	24014.537109	1714.682861	2.310491
421.747009	1140.129395	24708.041016	1741.614990	2.552138
422.110168	1151.351196	25848.169922	1649.596680	2.017448
422.473328	1119.930298	26270.107422	1712.438477	2.355881
422.836426	1077.287598	26954.634766	1777.524658	2.705985
423.199493	1135.640747	27125.205078	1806.701172	2.582038
423.562469	1097.486816	27479.812500	1806.701172	2.688218
423.925476	1167.061646	26804.263672	1777.524658	2.381161
424.288391	1193.993774	26795.285156	1782.013306	2.296835
424.651306	1146.862427	27282.308594	1710.194092	2.155432
425.014160	1084.020630	27773.822266	1750.592407	2.497478
425.376984	1104.219849	28323.687500	1748.348022	2.366425
425.739777	1115.441528	28260.845703	1730.393311	2.265399
426.102478	1151.351196	28189.027344	1811.189819	2.440441
426.465210	1135.640747	27592.029297	1752.836792	2.332881
426.827820	1131.151978	27383.304688	1806.701172	2.573310
427.190460	1171.550293	26788.552734	1701.216675	2.067636
427.553040	1092.998047	26012.007813	1725.904541	2.539854
427.915558	1146.862427	25625.980469	1833.633301	2.805538
428.278076	1146.862427	25183.843750	1719.171509	2.380953
428.640503	1167.061646	24831.480469	1795.479370	2.655539
429.002960	1176.039063	23918.029297	1667.551514	2.161255
429.365326	1216.437256	23422.029297	1672.040161	2.051749
429.727631	1178.283325	23029.267578	1701.216675	2.393180
430.089935	1176.039063	22531.021484	1764.058472	2.753547
430.452179	1142.373779	21918.314453	1667.551514	2.527817
430.814392	1167.061646	21839.761719	1550.845337	1.856476
431.176544	1158.084229	21325.806641	1676.528931	2.570666
431.538696	1142.373779	20957.732422	1645.108032	2.537094
431.900787	1146.862427	20744.519531	1658.574097	2.611086
432.262817	1124.418945	20838.783203	1669.795776	2.766393
432.624847	1149.106812	20668.212891	1654.085449	2.587099
432.986786	1079.531982	20443.777344	1618.175781	2.781641
433.348755	1160.328613	20827.560547	1645.108032	2.464909
433.710602	1254.591187	20672.701172	1642.863647	1.999538
434.072449	1146.862427	20993.642578	1620.420166	2.386068
434.434265	1110.952881	21056.484375	1663.062744	2.768088
434.796051	1133.396362	21314.583984	1602.465332	2.324288
435.157745	1117.685913	21435.779297	1642.863647	2.584779
435.519409	1113.197266	21404.359375	1642.863647	2.610330
435.881104	1153.595459	21139.525391	1723.660156	2.852330
436.242645	1164.817261	21370.693359	1663.062744	2.465844
436.604248	1128.907715	21455.978516	1629.397583	2.462184
436.965759	1191.749390	21262.964844	1716.927124	2.616572
437.327240	1052.599854	21262.964844	1676.528931	3.087174
437.688690	1117.685913	21096.882813	1712.438477	2.976859
438.050079	1135.640747	21451.490234	1746.103760	3.004861
438.411438	1185.016357	21422.314453	1728.148926	2.683820
438.772736	1133.396362	21447.001953	1622.664551	2.408574
439.134033	1113.197266	21606.349609	1654.085449	2.639361
439.495270	1155.839844	22205.591797	1658.574097	2.388314
439.856445	1086.265015	22142.750000	1692.239380	2.877851
440.217651	1158.084229	22389.628906	1723.660156	2.663847
440.578705	1182.772095	22919.294922	1683.261963	2.302530
440.939789	1144.618164	23235.748047	1701.216675	2.519557
441.300812	1176.039063	23850.699219	1759.569824	2.573493
441.661804	1220.926025	24111.042969	1716.927124	2.166879
442.022797	1128.907715	24903.298828	1833.633301	2.964221
442.383636	1140.129395	25394.812500	1799.968140	2.720459
442.744537	1140.129395	25581.091797	1732.637573	2.424242
443.105347	1160.328613	25787.572266	1790.990723	2.560831
443.466125	1135.640747	25147.933594	1808.945435	2.804000
443.826843	1135.640747	24633.976563	1831.389038	2.960841
444.187592	1106.464233	24750.683594	1786.501953	2.876127
444.548248	1135.640747	23949.451172	1766.302856	2.764387
444.908844	1113.197266	24061.667969	1752.836792	2.787286
445.269470	1086.265015	24178.375000	1703.461060	2.672757
445.629944	1092.998047	24005.558594	1755.081055	2.889607
445.990479	1149.106812	24463.406250	1768.547241	2.656912
446.350891	1140.129395	24445.451172	1725.904541	2.513482
446.711334	1182.772095	25213.019531	1775.280273	2.465677
447.071747	1119.930298	25284.837891	1811.189819	2.860592
447.432037	1202.971191	25778.595703	1867.298584	2.703196
447.792358	1164.817261	26256.642578	1806.701172	2.558140
448.152588	1180.527710	26878.326172	1779.768921	2.331877
448.512787	1126.663330	26837.927734	1849.343750	2.810754
448.872986	1133.396362	26741.421875	1914.429932	3.049956
449.233063	1202.971191	27037.675781	1835.877686	2.449831
449.593201	1209.704224	25994.052734	1822.411621	2.472155
449.953217	1182.772095	26617.982422	1894.230713	2.797141
450.313232	1173.794678	25679.843750	1860.565552	2.802454
450.673157	1193.993774	25713.509766	1802.212402	2.480549
451.033112	1167.061646	25293.816406	1894.230713	3.013953
451.393005	1205.215576	24995.318359	1820.167236	2.584905
451.752808	1146.862427	24216.527344	1858.321167	3.083958
452.112610	1117.685913	23794.589844	1757.325439	2.820665
452.472351	1146.862427	23399.585938	1782.013306	2.854261
452.832092	1169.305908	23722.771484	1759.569824	2.617176
453.191711	1164.817261	23103.332031	1732.637573	2.588235
453.551392	1155.839844	23736.238281	1777.524658	2.753206
453.910980	1155.839844	23379.386719	1703.461060	2.464149
454.270508	1099.731079	23462.427734	1707.949829	2.719792
454.630035	1189.505127	22811.566406	1757.325439	2.626116
454.989441	1220.926025	22724.035156	1793.234985	2.661517
455.348907	1122.174561	22196.613281	1669.795776	2.598509
455.708252	1209.704224	22057.464844	1764.058472	2.659059
456.067627	1164.817261	21505.353516	1761.814209	2.935011
456.426941	1169.305908	21442.511719	1681.017578	2.524079
456.786163	1176.039063	21065.462891	1714.682861	2.708192
457.145416	1104.219849	20874.691406	1698.972412	3.008287
457.504517	1135.640747	20677.189453	1712.438477	2.951648
457.863678	1171.550293	21083.416016	1660.818481	2.457169
458.222809	1135.640747	20912.845703	1678.773193	2.746255
458.581818	1131.151978	21179.923828	1786.501953	3.268779
458.940857	1110.952881	21206.855469	1714.682861	3.004244
459.299774	1162.572876	21648.992188	1746.103760	2.848379
459.658722	1160.328613	22082.152344	1672.040161	2.445827
460.017548	1198.482544	23170.662109	1752.836792	2.522983
460.376434	1095.242432	23830.500000	1777.524658	3.000988
460.735260	1160.328613	25067.136719	1820.167236	2.760045
461.093964	1189.505127	26083.826172	1795.479370	2.434187
461.452728	1079.531982	26577.583984	1894.230713	3.195141
461.811340	1171.550293	27324.951172	1923.407349	2.874797
462.170013	1144.618164	26447.412109	1880.764648	2.909349
462.528564	1133.396362	25810.015625	1820.167236	2.783083
462.887115	1176.039063	24979.607422	1865.054199	2.894588
463.245667	1144.618164	24066.156250	1835.877686	3.015764
463.604095	1153.595459	23960.671875	1775.280273	2.725842
463.962555	1122.174561	23532.001953	1799.968140	3.024537
464.320862	1084.020630	22715.058594	1782.013306	3.226811
464.679230	1211.948608	22293.121094	1694.483643	2.288938
465.037506	1088.509399	21797.119141	1770.791504	3.294678
465.395782	1146.862427	21660.214844	1629.397583	2.352298
465.754028	1236.636475	21220.322266	1685.506226	2.246181
466.112152	1137.885010	20962.222656	1687.750610	2.773690
466.470306	1176.039063	20757.986328	1705.705444	2.704871
466.828339	1117.685913	20634.546875	1654.085449	2.748390
467.186432	1151.351196	20843.271484	1734.881958	2.963300
467.544434	1158.084229	20434.800781	1786.501953	3.259983
467.902374	1189.505127	20706.365234	1719.171509	2.713892
468.260315	1124.418945	21377.425781	1683.261963	2.759309
468.618134	1142.373779	21148.501953	1723.660156	2.905541
468.976013	1122.174561	21043.017578	1746.103760	3.132042
469.333771	1173.794678	21179.923828	1660.818481	2.434373
469.691559	1084.020630	20394.402344	1703.461060	3.207811
470.049255	1173.794678	20129.568359	1663.062744	2.581103
470.406891	1124.418945	19970.218750	1685.506226	2.977254
470.764526	1164.817261	19615.613281	1705.705444	2.931517
471.122101	1189.505127	19550.525391	1716.927124	2.872509
471.479645	1133.396362	19301.404297	1674.284546	2.977146
471.837097	1250.102539	19292.425781	1645.108032	2.189327
472.194611	1205.215576	19171.230469	1672.040161	2.598376
472.552032	1211.948608	18881.710938	1692.239380	2.718151
472.909363	1214.192993	19029.837891	1651.841064	2.456538
473.266693	1202.971191	18946.796875	1613.687134	2.314698
473.623962	1122.174561	18843.556641	1555.333984	2.444276
473.981201	1182.772095	19397.910156	1730.393311	3.006407
474.338379	1119.930298	19680.699219	1687.750610	3.059250
474.695557	1158.084229	19471.974609	1685.506226	2.879901
475.052704	1193.993774	19597.658203	1622.664551	2.329269
475.409729	1223.170288	19808.626953	1750.592407	2.837822
475.766815	1144.618164	19779.449219	1663.062744	2.782126
476.123749	1142.373779	19285.693359	1568.800171	2.350322
476.480713	1209.704224	19739.050781	1703.461060	2.664729
476.837646	1137.885010	19687.431641	1701.216675	3.036903
477.194458	1063.821533	19772.716797	1678.773193	3.286948
477.551300	1160.328613	20354.003906	1703.461060	2.829747
477.908051	1153.595459	20524.574219	1604.709717	2.328815
478.264801	1149.106812	20255.251953	1633.886230	2.537296
478.621460	1146.862427	21179.923828	1631.641846	2.419897
478.978149	1178.283325	21168.701172	1645.108032	2.335242
479.334747	1214.192993	21462.710938	1627.153198	2.039459
479.691315	1095.242432	21451.490234	1779.768921	3.362734
480.047821	1191.749390	21550.242188	1725.904541	2.623746
480.404297	1171.550293	22391.873047	1705.705444	2.517187
480.760742	1160.328613	23330.009766	1795.479370	2.864952
481.117096	1104.219849	23040.490234	1746.103760	2.926131
481.473450	1158.084229	23325.521484	1768.547241	2.753873
481.829803	1142.373779	24461.162109	1835.877686	2.974013
482.186005	1117.685913	25118.755859	1867.298584	3.123247
482.542267	1164.817261	26714.488281	1862.809814	2.731904
482.898407	1990.737793	28310.220703	2751.572266	2.890765
483.254578	1238.880737	29385.263672	1939.117798	2.487840
483.610626	1155.839844	32502.666016	1972.782959	2.606143
483.966705	1144.618164	35696.375000	2044.602173	2.604742
484.322723	1158.084229	40241.183594	2210.684082	2.693235
484.678680	1220.926025	44406.695313	2334.123291	2.577695
485.034607	1072.798950	49333.039063	2475.517334	2.906572
485.390472	1079.531982	52576.125000	2643.843506	3.037699
485.746307	1140.129395	54569.109375	2708.929443	2.936234
486.102142	1137.885010	53900.292969	2686.486084	2.935046
486.457855	1185.016357	52430.242188	2605.689453	2.772303
486.813599	1164.817261	49229.800781	2556.313721	2.895031
487.169220	1090.753784	49113.093750	2524.892822	2.986400
487.524872	1185.016357	47815.859375	2524.892822	2.873369
487.880402	1160.328613	48161.492188	2444.096436	2.731353
488.235931	1097.486816	49144.515625	2421.652832	2.755979
488.591461	1146.862427	49979.414063	2524.892822	2.821950
488.946869	1185.016357	50843.488281	2473.272949	2.594233
489.302307	1081.776367	50547.234375	2621.399902	3.112523
489.657623	1187.260742	50632.519531	2547.336426	2.750670
490.013000	1162.572876	48935.789063	2486.739014	2.771775
490.368225	1135.640747	47384.945313	2477.761475	2.901926
490.723511	1158.084229	45854.300781	2426.141602	2.837058
491.078705	1144.618164	44141.859375	2374.521484	2.860424
491.433838	1173.794678	44022.910156	2441.852051	2.959355
491.788940	1115.441528	43648.105469	2286.991943	2.754472
492.143982	1162.572876	44096.972656	2462.051025	3.026660
492.499023	1158.084229	45342.585938	2354.322266	2.707370
492.853973	1155.839844	47804.640625	2536.114746	2.958865
493.208923	1164.817261	48307.375000	2453.073730	2.732682
493.563843	1211.948608	48197.398438	2464.295410	2.665393
493.918640	1135.640747	46307.656250	2453.073730	2.916480
494.273468	1277.034668	44359.562500	2334.123291	2.453636
494.628204	1227.659058	41390.289063	2385.743164	2.883487
494.982910	1449.849609	39799.046875	2578.757324	2.943758
495.337585	1140.129395	37556.941406	2194.973633	2.896586
495.692230	1158.084229	36511.074219	2073.778809	2.590147
496.046844	1218.681641	35027.558594	2244.349121	3.033723
496.401337	1162.572876	34637.042969	2147.842285	2.943346
496.755890	1135.640747	33667.484375	2091.733398	2.938944
497.110291	1160.328613	33041.308594	2105.199707	2.963745
497.464752	1142.373779	32978.468750	2091.733398	2.982023
497.819122	1135.640747	33131.082031	2091.733398	2.988215
498.173401	1196.238159	32994.179688	2107.443848	2.865612
498.527740	1167.061646	33570.976563	2129.887451	2.971326
498.881927	1185.016357	33824.585938	2064.801270	2.695455
499.236145	1155.839844	33207.390625	2174.774414	3.179049
499.590271	1162.572876	32884.207031	2006.448242	2.660252
499.944427	1117.685913	32412.892578	2163.552734	3.341939
500.298492	1171.550293	32457.779297	2107.443848	2.991391
500.652496	1149.106812	32141.326172	2188.240479	3.352886
501.006500	1214.192993	31364.781250	2136.620361	3.059401
501.360382	1171.550293	30612.923828	2109.688232	3.186461
501.714294	1133.396362	30801.449219	2080.511719	3.192374
502.068115	1153.595459	30303.203125	2091.733398	3.218355
502.421967	1167.061646	29896.976563	2085.000488	3.195063
502.775726	1169.305908	29948.595703	2087.244873	3.189582
503.129425	1164.817261	29506.458984	2089.489258	3.262591
503.483124	1149.106812	29526.658203	2087.244873	3.305916
503.836700	1176.039063	29313.445313	2168.041260	3.525564
504.190338	1160.328613	29340.376953	2136.620361	3.464478
504.543823	1119.930298	29232.648438	2145.597900	3.648411
504.897369	1144.618164	29324.667969	2188.240479	3.703408
505.250824	1209.704224	29775.781250	2233.127441	3.582652
505.604218	1169.305908	29791.492188	2201.706543	3.606994
505.957611	1176.039063	29712.939453	2190.484863	3.554856
506.310883	1162.572876	29802.712891	2159.063965	3.479351
506.664215	1180.527710	29589.500000	2215.172607	3.641965
507.017456	1146.862427	29681.519531	2170.285645	3.586597
507.370636	1196.238159	29598.478516	2260.059570	3.745555
507.723785	1146.862427	29194.494141	2282.503174	4.048972
508.076843	1155.839844	29755.582031	2260.059570	3.860943
508.429962	1061.577148	29885.753906	2282.503174	4.235771
508.782928	1176.039063	29582.767578	2430.630127	4.416528
509.135925	1185.016357	29317.933594	2340.856201	4.108496
509.488892	1160.328613	30143.855469	2367.788330	4.166020
509.841705	1135.640747	30339.113281	2419.408447	4.395942
510.194611	1137.885010	30770.027344	2457.562500	4.453534
510.547394	1155.839844	30992.218750	2468.784180	4.400482
510.900146	1158.084229	30983.242188	2589.979004	4.800963
511.252838	1144.618164	31360.291016	2567.535645	4.709204
511.605530	1193.993774	31539.839844	2578.757324	4.563272
511.958130	1151.351196	31613.904297	2578.757324	4.685773
512.310730	1036.889404	32228.855469	2634.865967	5.123039
512.663269	1135.640747	32412.892578	2619.155518	4.743111
513.015747	1108.708496	32697.923828	2702.196533	5.044405
513.368164	1131.151978	32513.886719	2733.617432	5.106201
513.720520	1173.794678	32778.718750	2673.020020	4.743645
514.072937	1149.106812	32345.560547	2697.707764	4.964029
514.425232	1113.197266	32688.947266	2866.033936	5.551211
514.777527	1176.039063	32733.833984	2910.920898	5.497475
515.129761	1142.373779	32567.751953	2825.635742	5.356378
515.481934	1207.459839	31916.890625	2897.454834	5.503179
515.834045	1205.215576	31955.044922	2863.789551	5.393766
516.186218	1128.907715	31461.287109	2888.477539	5.800962
516.538208	1162.572876	31470.265625	2998.450684	6.057465
516.890259	1095.242432	31461.287109	2919.898438	6.008870
517.242188	1133.396362	31672.255859	2991.717529	6.085104
517.594116	1160.328613	32109.904297	2987.228760	5.902828
517.945923	1131.151978	32206.412109	3065.781006	6.225625
518.297791	1173.794678	32711.390625	3218.396729	6.483063
518.649597	1189.505127	33842.542969	3222.885498	6.227232
519.001282	1142.373779	34681.929688	3388.967285	6.698340
519.352966	1173.794678	35777.171875	3573.003906	6.933454
519.704651	1101.975464	36477.410156	3622.379639	7.124731
520.056274	1180.527710	37330.261719	3763.773682	7.145961
520.407776	1149.106812	37056.449219	3783.972900	7.337959
520.759338	1149.106812	37345.972656	3855.791992	7.477678
521.110840	1200.726807	36313.570313	3846.814697	7.535954
521.462219	1162.572876	35875.921875	3831.104248	7.687335
521.813660	1158.084229	34796.390625	3851.303223	8.006405
522.164978	1180.527710	34612.355469	3826.615479	7.914876
522.516296	1155.839844	34343.031250	3831.104248	8.061135
522.867493	1126.663330	33824.585938	3853.547607	8.339625
523.218689	1124.418945	33281.453125	3853.547607	8.486879
523.569946	1182.772095	33036.820313	3972.498047	8.757838
523.920959	1169.305908	33303.898438	3889.457275	8.464869
524.272034	1202.971191	32693.435547	3875.991211	8.488347
524.623047	1209.704224	33164.750000	4046.561768	8.877651
524.974060	1142.373779	33276.964844	4185.711426	9.470597
525.325073	1160.328613	33788.679688	4149.801758	9.162195
525.675903	1140.129395	34511.359375	4297.928711	9.462640
526.026794	1137.885010	35543.757813	4470.743652	9.686890
526.377563	1211.948608	36663.687500	4578.472656	9.496076
526.728333	1155.839844	38495.078125	4818.617676	9.809461
527.079041	1160.328613	39861.886719	5002.654297	9.928090
527.429749	1092.998047	41208.496094	5153.025879	10.120846
527.780396	1106.464233	42532.664063	5393.171387	10.347816
528.130920	1155.839844	44105.953125	5521.099121	10.163557
528.481506	1135.640747	45203.437500	5810.620117	10.608607
528.831909	1176.039063	47187.441406	6198.892578	10.916541
529.182373	1144.618164	49988.390625	6694.893555	11.363322
529.532776	1158.084229	52780.359375	7343.510742	11.982089
529.883179	1137.885010	54912.492188	7734.027344	12.266278
530.233521	1099.731079	56550.867188	8315.313477	13.012506
530.583740	1117.685913	56761.835938	8550.970703	13.358610
530.934021	1205.215576	56036.910156	8346.734375	13.024435
531.284119	1144.618164	54250.410156	7906.842285	12.733496
531.634338	1140.129395	52077.878906	7646.498047	12.773176
531.984375	1160.328613	50345.242188	7224.560059	12.329454
532.334412	1088.509399	48740.531250	7112.342773	12.641296
532.684448	1108.708496	47039.316406	6611.853027	11.981432
533.034363	1072.798950	46453.539063	6665.717285	12.324432
533.384277	1149.106812	45807.167969	6670.206055	12.363051
533.734131	1196.238159	45683.730469	6892.396484	12.803954
534.083984	1198.482544	46325.613281	6926.061523	12.692098
534.433777	1180.527710	46803.660156	6926.061523	12.593466
534.783447	1191.749390	47344.546875	7051.745117	12.696946
535.133179	1164.817261	47977.453125	7146.007813	12.776872
535.482788	1162.572876	46682.464844	7000.125488	12.824180
535.832397	1234.392090	45129.375000	6820.577148	12.726249
536.181946	1158.084229	43253.097656	6571.454590	12.859885
536.531433	1135.640747	41774.074219	6322.332031	12.763020
536.880920	1207.459839	41132.187500	6275.200684	12.693238
537.230286	1137.885010	40737.183594	6376.196289	13.228294
537.579712	1146.862427	40431.953125	6263.978516	13.025594
537.929016	1124.418945	41044.660156	6477.191895	13.408669
538.278320	1135.640747	40887.554688	6432.304688	13.324300
538.627502	1171.550293	40391.554688	6320.087402	13.127324
538.976746	1176.039063	39094.320313	6142.783691	13.098549
539.325867	1155.839844	37595.093750	5839.796875	12.854152
539.674988	1110.952881	36134.023438	5759.000000	13.271386
540.023987	1135.640747	35474.183594	5702.891602	13.300654
540.372986	1113.197266	35115.089844	5557.008789	13.069307
540.721985	1151.351196	35148.753906	5689.425293	13.348297
541.070862	1106.464233	36416.812500	5952.014160	13.722748
541.419800	1169.305908	37541.230469	6035.055176	13.377760
541.768616	1205.215576	39556.656250	6412.105957	13.576779
542.117371	1144.618164	41711.230469	6486.169434	13.167358
542.466125	1108.708496	43850.093750	7074.188965	13.957152
542.814758	1218.681641	45679.238281	7359.221191	13.811208
543.163513	1169.305908	47030.339844	7574.678711	13.966918
543.512024	1057.088501	47021.359375	7543.257813	14.111329
543.860596	1128.907715	45380.742188	7374.931641	14.114722
544.209167	1176.039063	43930.890625	7060.722656	13.763780
544.557556	1126.663330	43264.320313	7130.297363	14.247669
544.906006	1180.527710	41935.664063	6746.513672	13.657140
545.254333	1191.749390	40566.613281	6681.427734	13.942088
545.602722	1151.351196	39707.027344	6450.259766	13.743525
545.951050	1169.305908	37702.824219	6261.734375	13.939058
546.299194	1097.486816	35983.652344	5945.281250	13.896037
546.647400	1158.084229	35388.898438	5907.127441	13.873591
546.995544	1108.708496	34394.652344	5828.575195	14.179759
547.343628	1178.283325	33622.597656	5628.828125	13.717488
547.691711	1193.993774	33824.585938	5675.959473	13.735472
548.039734	1061.577148	32745.054688	5568.230469	14.223987
548.387756	1113.197266	32760.765625	5550.275879	14.020283
548.735596	1117.685913	31955.044922	5429.081055	13.981077
549.083496	1101.975464	31524.128906	5325.840820	13.884175
549.431335	1117.685913	30482.751953	5276.464844	14.162334
549.779114	1110.952881	29374.042969	5175.469238	14.381005
550.126770	1142.373779	28465.082031	4984.699707	14.062757
550.474487	1126.663330	27535.919922	4856.771973	14.124248
550.822205	1173.794678	27024.208984	4791.685547	13.995485
551.169739	1153.595459	25978.341797	4582.960938	13.814302
551.517334	1131.151978	25296.060547	4497.675781	13.931458
551.864746	1142.373779	24840.457031	4522.363770	14.262714
552.212280	1122.174561	24400.564453	4549.295898	14.722329
552.559631	1146.862427	24063.912109	4497.675781	14.621488
552.907043	1140.129395	24234.482422	4441.567383	14.295434
553.254395	1072.798950	24288.347656	4369.748047	14.201470
553.601624	1151.351196	24133.488281	4329.349609	13.828125
553.948914	1126.663330	24427.498047	4396.680176	14.033905
554.296082	1176.039063	23940.472656	4363.015137	13.999804
554.643188	1066.065918	24001.070313	4466.254883	14.825325
554.990356	1151.351196	24162.664063	4371.992188	13.995904
555.337341	1151.351196	23969.650391	4345.060059	13.996263
555.684387	1041.378052	23493.847656	4232.842773	14.214316
556.031311	1232.147705	22995.601563	4302.417480	14.107457
556.378235	1182.772095	22943.982422	4374.236816	14.665842
556.725098	1126.663330	22513.066406	4190.200195	14.324695
557.071960	1229.903442	22479.402344	3983.719971	12.959442
557.418701	1205.215576	21909.337891	4156.534668	14.254741
557.765381	1227.659058	21756.720703	4019.629395	13.600086
558.112122	1119.930298	21891.382813	4199.177246	14.824418
558.458679	1200.726807	21458.222656	4015.140869	13.893198
558.805359	1173.794678	21047.507813	3974.742432	14.093732
559.151855	1151.351196	20793.896484	3929.855469	14.145338
559.498413	1158.084229	21146.257813	3920.878174	13.822143
559.844849	1072.798950	20540.285156	3835.592773	14.191837
560.191162	1146.862427	20623.324219	3858.036377	13.920259
560.537537	1128.907715	20722.076172	3774.995361	13.505155
560.883850	1146.862427	20818.583984	3864.769287	13.816314
561.230164	1115.441528	20376.447266	3777.239746	13.819623
561.576355	1189.505127	20434.800781	3743.574463	13.271136
561.922546	1113.197266	20793.896484	3714.397949	13.217013
562.268677	1142.373779	20621.080078	3757.040527	13.423204
562.614746	1160.328613	20672.701172	3714.397949	13.089486
562.960815	1189.505127	20722.076172	3766.018066	13.190854
563.306763	1144.618164	20531.306641	3709.909180	13.232229
563.652710	1101.975464	20576.193359	3860.280762	14.163881
563.998657	1205.215576	20486.419922	3718.886719	13.036899
564.344482	1153.595459	20329.314453	3730.108398	13.436331
564.690308	1126.663330	20084.681641	3606.669189	13.081568
565.036011	1164.817261	20230.564453	3615.646729	12.854621
565.381714	1124.418945	20261.984375	3671.755371	13.310660
565.727356	1081.776367	20167.722656	3656.044922	13.487771
566.072998	1153.595459	20499.886719	3577.492676	12.529002
566.418640	1133.396362	20762.474609	3730.108398	13.228904
566.764099	1176.039063	21092.394531	3685.221436	12.598602
567.109558	1099.731079	21413.335938	3766.018066	13.125622
567.454956	1131.151978	21794.875000	3748.063232	12.664277
567.800415	1185.016357	21693.878906	3752.552002	12.519152
568.145691	3516.895264	24573.378906	6176.449219	12.630569
568.491028	1272.546021	21563.707031	3680.732666	11.868155
568.836304	1153.595459	21669.191406	3510.162109	11.486709
569.181458	1124.418945	21381.916016	3548.316162	11.965433
569.526672	1146.862427	21684.902344	3597.691895	11.933124
569.871704	1155.839844	20897.136719	3463.030762	11.687129
570.216797	1223.170288	20921.824219	3575.248291	11.940298
570.561829	1142.373779	21108.105469	3411.410889	11.364657
570.906799	1137.885010	20760.230469	3362.035156	11.334783
571.251709	1079.531982	20858.982422	3400.189209	11.732667
571.596619	1110.952881	20755.742188	3476.497070	12.041586
571.941406	1131.151978	21020.574219	3377.745605	11.295420
572.286133	1133.396362	21253.988281	3409.166504	11.310652
572.630920	1128.907715	21595.128906	3418.143799	11.185436
572.975647	1086.265015	21455.978516	3404.677734	11.381665
573.320251	1167.061646	21978.912109	3557.293457	11.484957
573.664917	1144.618164	21862.205078	3516.895264	11.450548
574.009399	1178.283325	21792.630859	3447.320313	11.007077
574.353882	1126.663330	21983.400391	3395.700439	10.879157
574.698364	1101.975464	21379.669922	3393.456055	11.300498
575.042786	1162.572876	21543.507813	3270.016846	10.340270
575.387146	1178.283325	21280.919922	3193.708984	10.025679
575.731445	1153.595459	21363.960938	3175.754150	10.005552
576.075684	1218.681641	21034.041016	3287.971680	10.442859
576.419861	1176.039063	21132.792969	3252.062012	10.402608
576.764099	1243.369507	21040.773438	3124.134033	9.500056
577.108215	1227.659058	21058.728516	3155.554932	9.721593
577.452332	1185.016357	20232.808594	3137.600342	10.250973
577.796387	1104.219849	20068.970703	2984.984375	9.917160
578.140320	1167.061646	19833.314453	3085.980225	10.280149
578.484253	1178.283325	19548.281250	2904.187988	9.395236
578.828125	1137.885010	18919.863281	2892.966064	9.869999
579.171997	1153.595459	18655.031250	2942.341797	10.220570
579.515747	1187.260742	18363.265625	2740.350342	9.042206
579.859558	1169.305908	18304.912109	2756.060791	9.259987
580.203247	1214.192993	17739.335938	2782.993164	9.493414
580.546875	1185.016357	17265.779297	2697.707764	9.406838
580.890564	1090.753784	17263.535156	2587.734619	9.256174
581.234070	1113.197266	16745.089844	2621.399902	9.648241
581.577576	1108.708496	16680.003906	2578.757324	9.440762
581.921143	1158.084229	16760.800781	2545.092041	8.889527
582.264465	1185.016357	16585.740234	2628.133057	9.370447
582.607849	1185.016357	16305.197266	2545.092041	8.995102
582.951172	1176.039063	16163.803711	2488.983398	8.760108
583.294495	1099.731079	16123.405273	2500.205078	9.321781
583.637634	1099.731079	15907.947266	2405.942383	8.820855
583.980835	1135.640747	15791.241211	2475.517334	9.142420
584.324036	1092.998047	15836.127930	2473.272949	9.362157
584.667114	1164.817261	15589.250000	2358.811035	8.277578
585.010193	1162.572876	15492.743164	2475.517334	9.162100
585.353149	1196.238159	15620.670898	2284.747559	7.546289
585.696106	1146.862427	15079.782227	2392.476318	8.940078
586.038940	1180.527710	15149.357422	2466.539795	9.206298
586.381836	1167.061646	15169.556641	2387.987549	8.719345
586.724670	1158.084229	15082.027344	2367.788330	8.687942
587.067383	1101.975464	15241.375977	2363.299805	8.920635
587.410156	1075.043335	14942.876953	2345.344971	9.160058
587.752747	1176.039063	15028.162109	2444.096436	9.154245
588.095398	1137.885010	15061.828125	2329.634521	8.558994
588.437988	1158.084229	15046.117188	2275.770020	8.047833
588.780518	1178.283325	14929.411133	2316.168457	8.274850
589.122986	1182.772095	15039.383789	2199.462158	7.337220
589.465393	1164.817261	15248.108398	2273.525879	7.872511
589.807800	1155.839844	15012.452148	2295.969238	8.228053
590.150085	1144.618164	15129.158203	2300.458008	8.265126
590.492432	1171.550293	15411.946289	2257.815430	7.628054
590.834656	1180.527710	15254.841797	2237.616211	7.510764
591.176819	1155.839844	15582.516602	2385.743164	8.525202
591.518982	1171.550293	15459.077148	2302.702393	7.917060
591.861084	1133.396362	15454.588867	2289.236328	8.070836
592.203125	1182.772095	15153.845703	2327.390137	8.192771
592.545105	1176.039063	15252.597656	2365.544189	8.450255
592.887085	1119.930298	15261.575195	2289.236328	8.268529
593.229004	1097.486816	14866.569336	2255.571045	8.410758
593.570862	1182.772095	14940.632813	2262.303955	7.846655
593.912720	1176.039063	14581.537109	2244.349121	7.969193
594.254456	1193.993774	14639.889648	2199.462158	7.477883
594.596130	1171.550293	14725.175781	2116.421387	6.971354
594.937744	1115.441528	14985.519531	2168.041260	7.588996
595.279419	1218.681641	15106.714844	2257.815430	7.482224
595.621033	1151.351196	15108.958984	2224.150146	7.686123
595.962463	1101.975464	14967.565430	2275.770020	8.465522
596.304016	1092.998047	15218.932617	2201.706543	7.848744
596.645386	1164.817261	15575.784180	2361.055420	8.300888
596.986816	1131.151978	15364.814453	2318.412842	8.341219
597.328125	1193.993774	15753.086914	2233.127441	7.137352
597.669434	1207.459839	16536.365234	2248.837891	6.793558
598.010681	1223.170288	16534.121094	2311.679688	7.109352
598.351807	1207.459839	16796.708984	2300.458008	7.011230
598.693054	1252.346924	16823.642578	2349.833740	7.048141
599.034119	1146.862427	16915.660156	2354.322266	7.657273
599.375122	1178.283325	16394.970703	2304.946777	7.404131
599.716064	1142.373779	15580.272461	2309.435303	8.083320
600.057068	1151.351196	15602.715820	2215.172607	7.361391
600.398010	1164.817261	15075.293945	2132.131836	6.953856
600.738831	1142.373779	14731.908203	2138.864746	7.332782
601.079651	1173.794678	14635.401367	2170.285645	7.402467
601.420410	1059.332886	14137.156250	2177.018799	8.546422
601.761108	1086.265015	14253.862305	2129.887451	7.925686
602.101868	1187.260742	13892.521484	2116.421387	7.313196
602.442444	1207.459839	13957.608398	2109.688232	7.076219
602.782959	1142.373779	13840.901367	2069.290039	7.299400
603.123474	1144.618164	13973.318359	2031.136108	6.910427
603.463989	1104.219849	13804.992188	2064.801270	7.563173
603.804382	1180.527710	13908.232422	2058.068359	6.894728
604.144714	1113.197266	14426.676758	2098.466553	7.400539
604.485107	1180.527710	14740.885742	2129.887451	7.000993
604.825378	1106.464233	15077.538086	2013.181274	6.489959
605.165649	1115.441528	15380.525391	2145.597900	7.221523
605.505737	1084.020630	15546.607422	2147.842285	7.355680
605.845886	1158.084229	15977.522461	2194.973633	6.996820
606.185974	1104.219849	16287.242188	2190.484863	7.154471
606.526062	1119.930298	16083.006836	2300.458008	7.889606
606.866028	1153.595459	16278.264648	2233.127441	7.137558
607.205994	1133.396362	15977.522461	2278.014404	7.710916
607.545898	1160.328613	15108.958984	2150.086670	7.095736
607.885681	1101.975464	15266.063477	2087.244873	6.956109
608.225525	1171.550293	14918.189453	2127.643066	6.955102
608.565247	1068.310181	14541.138672	2188.240479	8.312510
608.904968	1131.151978	14184.287109	2067.045654	7.169877
609.244629	1122.174561	14112.467773	2006.448242	6.807188
609.584229	1084.020630	14033.916016	1975.027344	6.880416
609.923767	1146.862427	14125.934570	2037.869141	6.864949
610.263245	1189.505127	14350.369141	2085.000488	6.804229
610.602722	1135.640747	14433.410156	2035.624756	6.767932
610.942200	1167.061646	14599.492188	2013.181274	6.299080
611.281494	1214.192993	14612.958008	1948.095093	5.477386
611.620789	1164.817261	14610.713867	2098.466553	6.943749
611.960022	1178.283325	14173.065430	2069.290039	6.856650
612.299316	1117.685913	13796.014648	1934.629028	6.443618
612.638428	1142.373779	13591.779297	1970.538574	6.652244
612.977539	1117.685913	13300.013672	1916.674194	6.558585
613.316650	1162.572876	13140.665039	1840.366333	5.658610
613.655701	1178.283325	12586.310547	1860.565552	5.980721
613.994690	1151.351196	12577.333008	1826.900269	5.912394
614.333557	1189.505127	12242.924805	1804.456787	5.563452
614.672424	1180.527710	12195.793945	1856.076782	6.132843
615.011230	1171.550293	12081.332031	1838.122070	6.109855
615.350037	1158.084229	11800.788086	1835.877686	6.368621
615.688782	1202.971191	11861.385742	1804.456787	5.643293
616.027405	1180.527710	11488.824219	1822.411621	6.226867
616.366150	1191.749390	11625.729492	1739.370605	5.248440
616.704651	1169.305908	11390.072266	1768.547241	5.862978
617.043213	1099.731079	11286.832031	1757.325439	6.455167
617.381653	1189.505127	11179.103516	1755.081055	5.661648
617.720154	1173.794678	11082.596680	1746.103760	5.775765
618.058594	1178.283325	10983.844727	1748.348022	5.813687
618.396851	1202.971191	11264.388672	1730.393311	5.242026
618.735168	1214.192993	11051.175781	1743.859375	5.384439
619.073425	1259.079956	11046.686523	1782.013306	5.342812
619.411621	1146.862427	11201.546875	1732.637573	5.825893
619.749756	1178.283325	11210.524414	1676.528931	4.966444
620.087830	1202.971191	11259.900391	1728.148926	5.222048
620.425903	1146.862427	11021.999023	1716.927124	5.772727
620.763916	1128.907715	11143.194336	1656.329712	5.266695
621.101868	1189.505127	10806.541992	1672.040161	5.017502
621.439697	1099.731079	10855.916992	1694.483643	6.096159
621.777588	1171.550293	10844.695313	1725.904541	5.730859
622.115417	1173.794678	10669.636719	1741.614990	5.979673
622.453125	1144.618164	10649.437500	1681.017578	5.643447
622.790894	1108.708496	10723.500977	1678.773193	5.929038
623.128540	1124.418945	10613.527344	1737.126343	6.456954
623.466125	1234.392090	10478.866211	1714.682861	5.195436
623.803650	1108.708496	10539.463867	1665.307129	5.901951
624.141174	1193.993774	10472.133789	1660.818481	5.031447
624.478699	1137.885010	10315.029297	1737.126343	6.529715
624.816101	1214.192993	10301.563477	1649.596680	4.791306
625.153442	1128.907715	10341.960938	1694.483643	6.138855
625.490723	1137.885010	10247.698242	1660.818481	5.740331
625.828064	1173.794678	10400.314453	1696.728027	5.667721
626.165222	1176.039063	10436.223633	1665.307129	5.283567
626.502380	1169.305908	10359.916016	1723.660156	6.031746
626.839539	1155.839844	10849.184570	1721.415894	5.834684
627.176575	1158.084229	10734.722656	1672.040161	5.366767
627.513672	1198.482544	10970.378906	1714.682861	5.282499
627.850525	1113.197266	11062.397461	1768.547241	6.586961
628.187500	1169.305908	11271.122070	1737.126343	5.620974
628.524414	1128.907715	11223.990234	1707.949829	5.735883
628.861206	1200.726807	11262.144531	1732.637573	5.286638
629.197998	1149.106812	11194.814453	1701.216675	5.495977
629.534668	1122.174561	10963.646484	1678.773193	5.655644
629.871399	1119.930298	10703.301758	1703.461060	6.088993
630.208008	1155.839844	10674.125000	1645.108032	5.140298
630.544556	1122.174561	10517.020508	1573.288818	4.801721
630.881104	1106.464233	10496.821289	1613.687134	5.401529
631.217590	1205.215576	10252.187500	1604.709717	4.415778
631.554077	1110.952881	10458.666992	1611.442749	5.354142
631.890381	1155.839844	10144.458984	1613.687134	5.093633
632.226746	1196.238159	10124.259766	1600.221069	4.524887
632.562988	1144.618164	9917.779297	1580.021851	4.962905
632.899292	1108.708496	9868.403320	1588.999268	5.482962
633.235474	1133.396362	9641.724609	1584.510620	5.302032
633.571533	1229.903442	9639.480469	1535.134888	3.629570
633.907654	1169.305908	9529.506836	1649.596680	5.744967
634.243652	1149.106812	9424.022461	1602.465332	5.478708
634.579651	1149.106812	9358.936523	1541.867920	4.784035
634.915588	1126.663330	9538.484375	1613.687134	5.789754
635.251465	1202.971191	9491.352539	1588.999268	4.657461
635.587341	1140.129395	9673.145508	1602.465332	5.418201
635.923096	1137.885010	9542.972656	1624.908813	5.794393
636.258850	1072.798950	9446.465820	1591.243652	6.191370
636.594482	1104.219849	9459.931641	1577.777466	5.667472
636.930176	1182.772095	9338.737305	1600.221069	5.118327
637.265808	1158.084229	9085.125977	1586.754883	5.407700
637.601318	1126.663330	9082.881836	1553.089722	5.359662
637.936768	1135.640747	8939.243164	1501.469604	4.687948
638.272217	1169.305908	8939.243164	1591.243652	5.430388
638.607666	1207.459839	8795.604492	1553.089722	4.554867
638.942871	1283.767822	8818.047852	1505.958374	2.949061
639.278259	1211.948608	8490.373047	1600.221069	5.334568
639.613525	1187.260742	8539.749023	1505.958374	4.334555
639.948608	1232.147705	8535.259766	1479.026123	3.380455
640.283813	1180.527710	8407.332031	1496.980957	4.378882
640.618896	1202.971191	8405.087891	1492.492188	4.019943
640.953979	1106.464233	8111.078125	1532.890503	6.087791
641.288879	1211.948608	8261.449219	1472.293091	3.693091
641.623840	1133.396362	8178.408691	1530.646240	5.638740
641.958801	1236.636475	8088.634766	1501.469604	3.865050
642.293640	1097.486816	7969.684082	1429.650513	4.833442
642.628418	1137.885010	7814.824219	1535.134888	5.949580
642.963135	1146.862427	7958.462402	1463.315674	4.645799
643.297791	1115.441528	7976.416992	1488.003540	5.430161
643.632446	1171.550293	7841.756348	1514.935791	5.148049
643.967041	1180.527710	7576.922852	1438.627808	4.035087
644.301636	1171.550293	7841.756348	1400.473877	3.432032
644.636047	1124.418945	7731.783203	1463.315674	5.129076
644.970520	1180.527710	7698.117676	1438.627808	3.960054
645.304932	1218.681641	7657.719727	1411.695679	2.997560
645.639282	1211.948608	7561.212402	1483.514893	4.277130
645.973511	1216.437256	7612.832520	1481.270508	4.140351
646.307800	1180.527710	7637.520508	1440.872192	4.031977
646.642090	1187.260742	7460.216797	1436.383545	3.971378
646.976135	1144.618164	7574.678711	1346.609497	3.141360
647.310242	1153.595459	7727.294434	1409.451294	3.892113
647.644287	1202.971191	7520.814453	1449.849609	3.907638
647.978271	1075.043335	7547.746582	1485.759155	6.345352
648.312256	1167.061646	7695.873535	1539.623535	5.706427
648.646118	1155.839844	7502.859375	1465.560059	4.879774
648.979980	1164.817261	7563.457031	1463.315674	4.665029
649.313721	1171.550293	7615.077148	1447.605225	4.284221
649.647522	1193.993774	7532.036133	1436.383545	3.824363
649.981201	1207.459839	7388.397461	1342.120850	2.178650
650.314819	1205.215576	7666.696777	1364.564331	2.466133
650.648438	1133.396362	7406.352539	1425.161743	4.651163
650.981934	1124.418945	7478.171875	1400.473877	4.344754
651.315430	1110.952881	7484.904785	1333.143433	3.485915
651.648865	1209.704224	7417.574219	1355.586914	2.349964
651.982300	1137.885010	7406.352539	1400.473877	4.189044
652.315613	1198.482544	7446.750977	1409.451294	3.376435
652.648926	1225.414673	7273.936035	1375.786133	2.486086
652.982178	1131.151978	7321.067383	1418.428711	4.641045
653.315308	1180.527710	7435.528809	1326.410400	2.332257
653.648499	1196.238159	7215.583008	1353.342651	2.609993
653.981567	1193.993774	7273.936035	1384.763428	3.137688
654.314636	1164.817261	7316.578613	1375.786133	3.429406
654.647522	1128.907715	7233.537598	1277.034668	2.426469
654.980530	1169.305908	7103.365234	1404.962646	3.971257
655.313416	1128.907715	7148.252441	1328.654785	3.318419
655.646240	1084.020630	6939.527832	1404.962646	5.481029
655.979065	1115.441528	7146.007813	1393.740845	4.614812
656.311768	1185.016357	7045.012207	1364.564331	3.063961
656.644470	1160.328613	6914.839844	1337.632202	3.081123
656.977112	1173.794678	6997.880859	1382.519165	3.583815
657.309692	1149.106812	6973.192871	1346.609497	3.391136
657.642273	1220.926025	7024.812988	1375.786133	2.668214
657.974670	1128.907715	6930.550293	1344.365234	3.713733
658.307129	1198.482544	6836.287598	1339.876465	2.507960
658.639465	1169.305908	7087.654785	1369.052979	3.375047
658.971802	1209.704224	6917.084473	1366.808716	2.752655
659.304138	1135.640747	7053.989746	1366.808716	3.905954
659.636353	1274.790405	7347.999512	1364.564331	1.478196
659.968567	1146.862427	7635.275879	1382.519165	3.631962
660.300659	1211.948608	7642.009277	1353.342651	2.198954
660.632690	1189.505127	7949.484863	1312.944336	1.826029
660.964722	1167.061646	7731.783203	1402.718262	3.589743
661.296753	1178.283325	7729.538574	1357.831299	2.740665
661.628723	1140.129395	7561.212402	1438.627808	4.648724
661.960510	1090.753784	7507.348145	1369.052979	4.337179
662.292358	1128.907715	7469.194336	1330.899048	3.185839
662.624084	1176.039063	7267.202637	1283.767822	1.768607
662.955872	1173.794678	7251.492188	1321.921753	2.437224
663.287537	1193.993774	7215.583008	1389.252197	3.242639
663.619141	1162.572876	7033.790527	1315.188599	2.599388
663.950745	1133.396362	6941.771973	1362.319946	3.941267
664.282227	1131.151978	6701.626953	1306.211304	3.142628
664.613708	1191.749390	6636.540527	1270.301636	1.442705
664.945068	1193.993774	6665.717285	1292.745117	1.804757
665.276489	1140.129395	6299.888184	1297.233887	3.044803
665.607849	1216.437256	6288.666504	1369.052979	3.008849
665.939087	1119.930298	6315.598633	1321.921753	3.887689
666.270325	1155.839844	6228.069336	1346.609497	3.761061
666.601440	1160.328613	6268.467285	1344.365234	3.602812
666.932556	1171.550293	6304.376953	1348.853882	3.454307
667.263611	1158.084229	6223.580566	1281.523438	2.436863
667.594666	1171.550293	6207.870117	1324.166016	3.030303
667.925598	1162.572876	6048.520996	1337.632202	3.582914
668.256470	1193.993774	6133.806641	1364.564331	3.452976
668.587341	1124.418945	6219.091797	1319.677368	3.832600
668.918213	1133.396362	6216.847168	1256.835571	2.428256
669.248962	1151.351196	6118.096191	1373.541748	4.473565
669.579712	1209.704224	6086.675293	1277.034668	1.380579
669.910278	1158.084229	6120.340332	1220.926025	1.266396
670.240906	1178.283325	6203.381348	1355.586914	3.528361
670.571411	1133.396362	5965.480469	1315.188599	3.762191
670.901917	1198.482544	5969.968750	1263.568604	1.364063
671.232422	1090.753784	6192.159668	1247.858154	3.079629
671.562805	1200.726807	5934.059570	1270.301636	1.469891
671.893127	1144.618164	5938.547852	1268.057373	2.574907
672.223450	1135.640747	5916.104492	1353.342651	4.553991
672.553650	1223.170288	5902.638672	1369.052979	3.117506
672.883850	1124.418945	5844.285645	1268.057373	3.043273
673.214050	1099.731079	5947.525391	1272.546021	3.564816
673.544067	1167.061646	5781.443848	1272.546021	2.285991
673.874146	1128.907715	5817.353027	1292.745117	3.494493
674.204163	1106.464233	5714.113281	1288.256470	3.945445
674.534058	1149.106812	5732.067871	1288.256470	3.036239
674.863953	1117.685913	5835.308105	1342.120850	4.757374
675.193726	1160.328613	5601.895508	1310.699951	3.385547
675.523560	1180.527710	5660.249023	1299.478271	2.655312
675.853333	1155.839844	5523.343262	1274.790405	2.723537
676.182983	1167.061646	5487.434082	1270.301636	2.389609
676.512634	1180.527710	5601.895508	1236.636475	1.269036
676.842163	1209.704224	5541.298340	1315.188599	2.435232
677.171692	1142.373779	5435.813965	1272.546021	3.031887
677.501160	1146.862427	5572.719238	1324.166016	4.006085
677.830627	1209.704224	5626.583496	1337.632202	2.896343
678.159973	1146.862427	5372.972168	1324.166016	4.195433
678.489258	1225.414673	5388.682617	1281.523438	1.347710
678.818542	1191.749390	5422.347656	1312.944336	2.864724
679.147705	1144.618164	5328.084961	1335.387817	4.560085
679.476929	1191.749390	5489.678223	1360.075684	3.916451
679.806030	1193.993774	5469.479004	1310.699951	2.729659
680.135071	1252.346924	5662.493164	1290.500854	0.865140
680.464111	1187.260742	5509.877441	1294.989502	2.492212
680.793091	1196.238159	5655.760254	1283.767822	1.962759
681.122009	1140.129395	5617.605957	1357.831299	4.862156
681.450806	1149.106812	5801.642578	1252.346924	2.219007
681.779602	1155.839844	5725.334961	1348.853882	4.223969
682.108398	1153.595459	5763.488770	1355.586914	4.381695
682.437012	1131.151978	5788.176758	1281.523438	3.228917
682.765747	1164.817261	5682.692383	1333.143433	3.725782
683.094299	1122.174561	5658.004395	1398.229614	6.086098
683.422913	1110.952881	5732.067871	1364.564331	5.488101
683.751343	1171.550293	5642.293945	1357.831299	4.166667
684.079773	1128.907715	5628.828125	1348.853882	4.887779
684.408203	1211.948608	5460.501465	1413.940063	4.754359
684.736511	1088.509399	5431.325195	1335.387817	5.684754
685.064819	1158.084229	5359.505859	1317.432983	3.792734
685.393005	1211.948608	5224.845215	1301.722534	2.237135
685.721252	1133.396362	5236.066895	1373.541748	5.853392
686.049377	1155.839844	5229.333496	1265.812988	2.699725
686.377441	1113.197266	5224.845215	1268.057373	3.766376
686.705505	1128.907715	5211.378906	1355.586914	5.552500
687.033386	1077.287598	4980.210938	1335.387817	6.612998
687.361328	1176.039063	4980.210938	1393.740845	5.722712
687.689148	1171.550293	5094.672852	1333.143433	4.118993
688.017029	1236.636475	5157.514648	1360.075684	3.148254
688.344849	1140.129395	5186.690918	1404.962646	6.544649
688.672546	1050.355469	5238.311035	1360.075684	7.395499
689.000183	1126.663330	5162.003418	1369.052979	6.006672
689.327759	1200.726807	5245.043945	1324.166016	3.052164
689.655334	1126.663330	5099.161621	1422.917358	7.457625
689.982849	1124.418945	4957.767578	1346.609497	5.796252
690.310303	1158.084229	4841.061523	1378.030396	5.971966
690.637695	1128.907715	4894.925781	1301.722534	4.588794
690.965088	1126.663330	4942.057129	1312.944336	4.882353
691.292419	1189.505127	4924.102051	1326.410400	3.665865
691.619568	1171.550293	4596.427246	1342.120850	4.980341
691.946838	1092.998047	4780.463867	1335.387817	6.573343
692.273926	1077.287598	4600.916016	1306.211304	6.496818
692.601013	1169.305908	4744.554199	1342.120850	4.833649
692.928040	1173.794678	4560.517578	1375.786133	5.964216
693.255005	1043.622437	4490.942871	1391.496582	10.091146
693.582031	1088.509399	4560.517578	1344.365234	7.369102
693.908813	1155.839844	4625.604004	1355.586914	5.756791
694.235718	1133.396362	4363.015137	1353.342651	6.810287
694.562500	1171.550293	4378.725586	1337.632202	5.178448
694.889160	1108.708496	4430.345215	1319.677368	6.351353
695.215881	1122.174561	4351.792969	1360.075684	7.366230
695.542480	1115.441528	4421.368164	1375.786133	7.875087
695.869080	1106.464233	4295.684570	1474.537476	11.541167
696.195496	1119.930298	4212.643555	1351.098267	7.474600
696.522034	1155.839844	4286.707031	1465.560059	9.892474
696.848511	1135.640747	4239.575684	1407.207031	8.749097
697.174744	1261.324219	4363.015137	1474.537476	6.874097
697.501099	1045.866699	4300.173340	1463.315674	12.827586
697.827332	1198.482544	4302.417480	1510.447021	10.050612
698.153564	1176.039063	4441.567383	1519.424438	10.515462
698.479675	1140.129395	4468.499512	1564.311401	12.744436
698.805786	1178.283325	4616.626465	1530.646240	10.248044
699.131836	1108.708496	4674.979492	1595.732300	13.656388
699.457764	1191.749390	4870.237793	1501.469604	8.419769
699.783752	1218.681641	5184.446777	1638.375000	10.582911
700.109619	1189.505127	5137.315430	1658.574097	11.881750
700.435547	1104.219849	5137.315430	1737.126343	15.692822
700.761230	1202.971191	4973.478027	1647.352295	11.785712
701.086975	1205.215576	5126.093750	1647.352295	11.276472
701.412659	1142.373779	5065.496094	1694.483643	14.073226
701.738281	1126.663330	4769.242188	1683.261963	15.280346
702.063843	1171.550293	4686.201172	1669.795776	14.176244
702.389343	1180.527710	4562.762207	1651.841064	13.934970
702.714844	1149.106812	4526.852539	1766.302856	18.272425
703.040283	1106.464233	4544.807129	1602.465332	14.425586
703.365601	1176.039063	4219.376465	1559.822754	12.610620
703.690918	1115.441528	4257.530273	1730.393311	19.571432
704.016174	1126.663330	4174.489746	1683.261963	18.262150
704.341431	1158.084229	4203.666016	1712.438477	18.201916
704.666504	1131.151978	4154.290527	1624.908813	16.332590
704.991638	1205.215576	4030.851318	1707.949829	17.791899
705.316650	1202.971191	3938.833008	1773.035889	20.836750
705.641663	1122.174561	3952.299072	1730.393311	21.490883
705.966553	1229.903442	3880.479736	1721.415894	18.543608
706.291443	1151.351196	3786.217285	1710.194092	21.209536
706.616272	1119.930298	3772.750977	1692.239380	21.573605
706.941040	1176.039063	3779.484131	1739.370605	21.637926
707.265808	1191.749390	3815.393799	1766.302856	21.899059
707.590454	1180.527710	3759.284912	1689.994995	19.756310
707.915100	1202.971191	3779.484131	1714.682861	19.860628
708.239685	1135.640747	3667.266602	1710.194092	22.695032
708.564148	1216.437256	3665.022217	1770.791504	22.639780
708.888672	1189.505127	3786.217285	1779.768921	22.731199
709.213013	1149.106812	3822.126709	1840.366333	25.860619
709.537415	1086.265015	3714.397949	1853.832520	29.205811
709.861694	1122.174561	3644.823242	1770.791504	25.711742
710.185913	1086.265015	3864.769287	1865.054199	28.029079
710.510132	1126.663330	3779.484131	1860.565552	27.664976
710.834229	1146.862427	3691.954590	1896.475098	29.453260
711.158386	1180.527710	3732.352783	1916.674194	28.847841
711.482422	1144.618164	3786.217285	1862.809814	27.187761
711.806396	1167.061646	3875.991211	1907.696899	27.340513
712.130371	1198.482544	3819.882324	1981.760376	29.880135
712.454224	1144.618164	3909.656494	2001.959473	31.006489
712.778076	1185.016357	3983.719971	2055.823975	31.114677
713.101746	1225.414673	3864.769287	1930.140381	26.700684
713.425537	1104.219849	3757.040527	2078.267334	36.717426
713.749207	1198.482544	3806.416260	1941.362061	28.485369
714.072815	1115.441528	3768.262451	1975.027344	32.402710
714.396362	1122.174561	3923.122559	1923.407349	28.605772
714.719849	1225.414673	3777.239746	1986.249023	29.815300
715.043335	1173.794678	3732.352783	2071.534424	35.087723
715.366699	1155.839844	3673.999756	2010.936890	33.957218
715.690063	1169.305908	3667.266602	1948.095093	31.177000
716.013367	1173.794678	3792.950195	2024.403076	32.476437
716.336609	1155.839844	3721.131104	1984.004761	32.283466
716.659790	1131.151978	3649.311768	2022.158691	35.383251
716.982910	1142.373779	3640.334473	2040.113403	35.938900
717.306030	1256.835571	3656.044922	2017.669922	31.711876
717.628967	1243.369507	3727.864014	2067.045654	33.152664
717.952026	1256.835571	3555.049316	1961.561279	30.664061
718.274902	1220.926025	3564.026611	2073.778809	36.398472
718.597778	1202.971191	3433.854248	2060.312500	38.430580
718.920593	1196.238159	3489.963135	1950.339478	32.876709
719.243347	1191.749390	3431.610107	2015.425659	36.773548
719.566040	1160.328613	3395.700439	1862.809814	31.425697
719.888672	1236.636475	3454.053467	1950.339478	32.186234
720.211304	1135.640747	3267.772461	1986.249023	39.894733
720.533875	1131.151978	3368.768311	1997.470825	38.716148
720.856323	1169.305908	3218.396729	1952.583862	38.225636
721.178772	1155.839844	3229.618652	1972.782959	39.393936
721.501160	1135.640747	3160.043701	2042.357788	44.789356
721.823486	1209.704224	3133.111572	1957.072510	38.856476
722.145813	1189.505127	3160.043701	2031.136108	42.710709
722.468018	1198.482544	3110.667969	1925.651611	38.028168
722.790161	1193.993774	3202.686279	2001.959473	40.223465
723.112305	1144.618164	3108.423584	2069.290039	47.085716
723.434326	1232.147705	3077.002930	2049.090820	44.282234
723.756348	1216.437256	3155.554932	2028.891724	41.898151
724.078308	1153.595459	3045.582031	1939.117798	41.518387
724.400208	1173.794678	2973.762695	1984.004761	45.012470
724.722046	1142.373779	3005.183594	1986.249023	45.301201
725.043884	1178.283325	2964.785400	1941.362061	42.713566
725.365540	1209.704224	3074.758545	2044.602173	44.765343
725.687256	1124.418945	2987.228760	1950.339478	44.337353
726.008850	1182.772095	3011.916748	2010.936890	45.276070
726.330444	1077.287598	2883.988770	1954.828247	48.571434
726.651978	1173.794678	2917.654053	1970.538574	45.688541
726.973450	1200.726807	2919.898438	1995.226440	46.214096
727.294922	1119.930298	2901.943604	2046.846558	52.015114
727.616211	1115.441528	3005.183594	2033.380371	48.574821
727.937622	1158.084229	2955.807861	2024.403076	48.189770
728.258789	1187.260742	2944.586182	2046.846558	48.914436
728.580017	1117.685913	3011.916748	2004.203857	46.800945
728.901245	1113.197266	3009.672363	2037.869141	48.757397
729.222290	1146.862427	3101.690674	2071.534424	47.301956
729.543335	1160.328613	3061.292480	2100.710938	49.468712
729.864258	1209.704224	2926.631348	2060.312500	49.542480
730.185242	1200.726807	2982.740234	2105.199707	50.755672
730.506165	1169.305908	3056.803711	2076.022949	48.038044
730.826965	1144.618164	2987.228760	2111.932617	52.496956
731.147705	1144.618164	2951.319336	2078.267334	51.677010
731.468445	1234.392090	3077.002930	2031.136108	43.239952
731.789124	1142.373779	3081.491455	2163.552734	52.662041
732.109680	1126.663330	2984.984375	2102.955322	52.536240
732.430237	1189.505127	3088.224609	2114.177002	48.699760
732.750793	1158.084229	3139.844482	2172.530029	51.189129
733.071167	1220.926025	3000.694824	2087.244873	48.675922
733.391602	1182.772095	3112.912354	2163.552734	50.813957
733.711914	1144.618164	3032.115723	2181.507568	54.934608
734.032227	1124.418945	2993.961914	2087.244873	51.500603
734.352417	1144.618164	3032.115723	2197.218018	55.766953
734.672607	1209.704224	3106.179443	2076.022949	45.680466
734.992798	1124.418945	3133.111572	2118.665771	49.497211
735.312805	1218.681641	3043.337646	2123.154297	49.569489
735.632874	1167.061646	3005.183594	2145.597900	53.235653
735.952759	1241.125122	2899.699219	2136.620361	53.991875
736.272705	1180.527710	2827.880127	2067.045654	53.814713
736.592468	1158.084229	2897.454834	2078.267334	52.903221
736.912354	1207.459839	2765.038330	2019.914307	52.161381
737.232056	1164.817261	2821.146973	1970.538574	48.644985
737.551758	1254.591187	2827.880127	2174.774414	58.487873
737.871460	1128.907715	2830.124512	2033.380371	53.166218
738.190979	1160.328613	2686.486084	2028.891724	56.911762
738.510559	1155.839844	2836.857422	2031.136108	52.069431
738.830017	1180.527710	2832.368652	2168.041260	59.782604
739.149414	1216.437256	2756.060791	2107.443848	57.871719
739.468811	1167.061646	2722.395508	2109.688232	60.606060
739.788086	1218.681641	2729.128662	2089.489258	57.652309
740.107300	1176.039063	2751.572266	2154.575195	62.108253
740.426514	1115.441528	2888.477539	2109.688232	56.075947
740.745667	1254.591187	2724.639893	2042.357788	53.587788
741.064819	1124.418945	2720.151367	2071.534424	59.353027
741.383789	1191.749390	2733.617432	2013.181274	53.275108
741.702820	1122.174561	2740.350342	2156.819580	63.938976
742.021667	1124.418945	2542.847656	1977.271729	60.126587
742.340576	1092.998047	2661.798096	1999.715210	57.796860
742.659363	1178.283325	2661.798096	1986.249023	54.462936
742.978149	1151.351196	2589.979004	2040.113403	61.778465
743.296875	1133.396362	2554.069336	1984.004761	59.873623
743.615479	1151.351196	2585.490234	2013.181274	60.093899
743.934082	1207.459839	2563.046875	2010.936890	59.271523
744.252625	1131.151978	2515.915527	2004.203857	63.047001
744.571106	1140.129395	2520.404297	1988.493408	61.463409
744.889526	1153.595459	2576.512939	1891.986450	51.892750
745.207947	1193.993774	2524.892822	1968.294312	58.178757
745.526306	1149.106812	2536.114746	1912.185547	55.016178
745.844482	1200.726807	2475.517334	1981.760376	61.267601
746.162781	1137.885010	2646.087646	1961.561279	54.613102
746.480896	1135.640747	2518.159912	1869.542969	53.084415
746.799011	1171.550293	2349.833740	1909.941162	62.666660
747.117065	1124.418945	2401.453613	1923.407349	62.565914
747.435059	1173.794678	2334.123291	1900.963867	62.669247
747.752991	1151.351196	2446.340576	1844.855103	53.552864
748.070862	1079.531982	2358.811035	1961.561279	68.947372
748.388733	1202.971191	2340.856201	1885.253418	59.960560
748.706482	1216.437256	2358.811035	1869.542969	57.170929
749.024231	1205.215576	2354.322266	1921.162964	62.304691
749.341919	1229.903442	2374.521484	1880.764648	56.862743
749.659485	1151.351196	2432.874512	1887.497681	57.443081
749.977112	1146.862427	2349.833740	1909.941162	63.432831
750.294556	1193.993774	2392.476318	1853.832520	55.056183
750.612000	1092.998047	2327.390137	1916.674194	66.727272
750.929382	1182.772095	2336.367676	1880.764648	60.505829
751.246765	1167.061646	2336.367676	1851.588135	58.541260
751.564026	1140.129395	2365.544189	1813.434204	54.945053
751.881226	1155.839844	2318.412842	1739.370605	50.193043
752.198425	1135.640747	2457.562500	1826.900269	52.292015
752.515503	1149.106812	2266.792725	1853.832520	63.052212
752.832581	1155.839844	2298.213623	1867.298584	62.278980
753.149597	1193.993774	2311.679688	1905.452515	63.654621
753.466553	1169.305908	2280.258789	1860.565552	62.222229
753.783508	1167.061646	2269.037109	1858.321167	62.729122
754.100281	1214.192993	2403.697998	1806.701172	49.811321
754.417114	1187.260742	2313.924072	1777.524658	52.390442
754.733765	1106.464233	2284.747559	1804.456787	59.238091
755.050537	1099.731079	2194.973633	1860.565552	69.467209
755.367126	1214.192993	2284.747559	1793.234985	54.088039
755.683716	1119.930298	2271.281494	1847.099365	63.157887
756.000244	1252.346924	2329.634521	1896.475098	59.791664
756.316650	1158.084229	2226.394531	1786.501953	58.823521
756.633057	1142.373779	2190.484863	1777.524658	60.599575
756.949402	1180.527710	2338.611816	1710.194092	45.736435
757.265686	1223.170288	2260.059570	1849.343750	60.389618
757.581970	1202.971191	2161.308350	1853.832520	67.915695
757.898071	1202.971191	2170.285645	1743.859375	55.916477
758.214233	1173.794678	2289.236328	1802.212402	56.338020
758.530273	1124.418945	2248.837891	1856.076782	65.069862
758.846313	1220.926025	2302.702393	1820.167236	55.394184
759.162231	1200.726807	2269.037109	1871.787231	62.815121
759.478210	1131.151978	2255.571045	1883.009033	66.866264
759.794067	1110.952881	2185.996094	1820.167236	65.970779
760.109802	1191.749390	2257.815430	1856.076782	62.315781
760.425598	1149.106812	2194.973633	1883.009033	70.171669
760.741211	1205.215576	2228.638916	1867.298584	64.692978
761.056885	1079.531982	2163.552734	1869.542969	72.877846
761.372437	1088.509399	2226.394531	1878.520264	69.428001
761.687927	1124.418945	2291.480469	1797.723755	57.692314
762.003418	1149.106812	2212.928467	1876.276001	68.354424
762.318787	1176.039063	2300.458008	1817.922852	57.085823
762.634155	1223.170288	2224.150146	1824.655884	60.089680
762.949463	1214.192993	2275.770020	1707.949829	46.511635
763.264648	1160.328613	2266.792725	1862.809814	63.488838
763.579834	1171.550293	2271.281494	1820.167236	58.979588
763.894958	1207.459839	2347.589355	1775.280273	49.803150
764.210022	1223.170288	2471.028564	1764.058472	43.345322
764.525024	1162.572876	2565.291260	1858.321167	49.599998
764.840027	1128.907715	2639.354736	2008.692627	58.246658
765.154907	1196.238159	2713.418213	2037.869141	55.473373
765.469788	1131.151978	2657.309570	1905.452515	50.735294
765.784607	1164.817261	2497.960693	1972.782959	60.606060
766.099304	1155.839844	2441.852051	1887.497681	56.893536
766.414001	1151.351196	2506.937988	1921.162964	56.788086
766.728577	1133.396362	2419.408447	1916.674194	60.907501
767.043213	1187.260742	2466.539795	1943.606445	59.122807
767.357666	1084.020630	2370.032715	1833.633301	58.289707
767.672180	1176.039063	2318.412842	1954.828247	68.172890
767.986572	1205.215576	2376.765869	1808.945435	51.532558
768.300903	1131.151978	2246.593506	1878.520264	67.002014
768.615234	1158.084229	2190.484863	1788.746338	61.086956
768.929443	1171.550293	2237.616211	1806.701172	59.578949
769.243591	1169.305908	2269.037109	1860.565552	62.857147
769.557739	1162.572876	2145.597900	1764.058472	61.187210
769.871826	1151.351196	2118.665771	1748.348022	61.716927
770.185852	1173.794678	2123.154297	1806.701172	66.666672
770.499756	1155.839844	2134.376221	1654.085449	50.917435
770.813660	1149.106812	2076.022949	1728.148926	62.469742
771.127502	1117.685913	2093.977783	1683.261963	57.931042
771.441284	1113.197266	2071.534424	1685.506226	59.718956
771.755005	1164.817261	2049.090820	1728.148926	63.705585
772.068665	1135.640747	2071.534424	1683.261963	58.513187
772.382385	1140.129395	2013.181274	1669.795776	60.668373
772.695862	1202.971191	1990.737793	1642.863647	55.840454
773.009460	1153.595459	2062.556885	1674.284546	57.283958
773.322815	1070.554565	1950.339478	1658.574097	66.836739
773.636230	1128.907715	1961.561279	1689.994995	67.385445
773.949585	1140.129395	1907.696899	1633.886230	64.327484
774.262817	1160.328613	1876.276001	1633.886230	66.144196
774.576111	1155.839844	1939.117798	1642.863647	62.177647
774.889221	1223.170288	1934.629028	1636.130615	58.044170
775.202393	1113.197266	1914.429932	1631.641846	64.705872
775.515381	1182.772095	1921.162964	1593.487915	55.623089
775.828430	1155.839844	1898.719482	1591.243652	58.610275
776.141418	1104.219849	1945.850830	1559.822754	54.133335
776.454285	1178.283325	1820.167236	1631.641846	70.629364
776.767151	1198.482544	1844.855103	1573.288818	57.986107
777.079895	1189.505127	1912.185547	1645.108032	63.043484
777.392639	1104.219849	1887.497681	1602.465332	63.610313
777.705200	1133.396362	1770.791504	1577.777466	69.718307
778.017883	1171.550293	1775.280273	1609.198364	72.490700
778.330444	1182.772095	1874.031616	1627.153198	64.285713
778.642944	1160.328613	1885.253418	1629.397583	64.705879
778.955383	1164.817261	1894.230713	1624.908813	63.076923
779.267700	1247.858154	1773.035889	1602.465332	67.521362
779.580078	1140.129395	1871.787231	1582.266235	60.429455
779.892273	1140.129395	1900.963867	1606.954102	61.356934
780.204529	1137.885010	1880.764648	1624.908813	65.558914
780.516724	1144.618164	1833.633301	1606.954102	67.100983
780.828796	1149.106812	1847.099365	1705.705444	79.742775
781.140869	1198.482544	1835.877686	1615.931396	65.492943
781.452820	1189.505127	1779.768921	1600.221069	69.581764
781.764771	1297.233887	1750.592407	1586.754883	63.861378
782.076721	1200.726807	1835.877686	1564.311401	57.243816
782.388489	1250.102539	1768.547241	1606.954102	68.831169
782.700195	1185.016357	1874.031616	1580.021851	57.328991
783.011963	1214.192993	1849.343750	1559.822754	54.416965
783.323547	1182.772095	1716.927124	1510.447021	61.344536
783.635193	1164.817261	1831.389038	1546.356567	57.239044
783.946716	1128.907715	1840.366333	1512.691406	53.943222
784.258179	1133.396362	1811.189819	1521.668823	57.284775
784.569580	1115.441528	1746.103760	1550.845337	69.039146
784.880981	1135.640747	1757.325439	1609.198364	76.173279
785.192261	1189.505127	1790.990723	1505.958374	52.611942
785.503540	1171.550293	1750.592407	1559.822754	67.054268
785.814758	1180.527710	1777.524658	1418.428711	39.849617
786.125854	1167.061646	1782.013306	1505.958374	55.109489
786.437012	1149.106812	1759.569824	1429.650513	45.955887
786.747986	1108.708496	1743.859375	1613.687134	79.505302
787.059021	1173.794678	1707.949829	1557.578369	71.848732
787.369873	1137.885010	1629.397583	1544.112305	82.648407
787.680725	1140.129395	1777.524658	1505.958374	57.394367
787.991516	1153.595459	1779.768921	1474.537476	51.254490
788.302246	1146.862427	1806.701172	1481.270508	50.680275
788.612976	1207.459839	1764.058472	1501.469604	52.822582
788.923584	1164.817261	1748.348022	1532.890503	63.076923
789.234131	1164.817261	1813.434204	1519.424438	54.671280
789.544678	1153.595459	1770.791504	1496.980957	55.636375
789.855103	1117.685913	1840.366333	1582.266235	64.285721
790.165588	1158.084229	1856.076782	1483.514893	46.623802
790.475891	1200.726807	1867.298584	1503.713989	45.454548
790.786194	1241.125122	1817.922852	1535.134888	50.972767
791.096375	1117.685913	1799.968140	1564.311401	65.460518
791.406555	1211.948608	1714.682861	1492.492188	55.803555
791.716675	1084.020630	1826.900269	1528.401855	59.818737
792.026733	1196.238159	1775.280273	1402.718262	35.658909
792.336731	1225.414673	1746.103760	1505.958374	53.879314
792.646667	1142.373779	1815.678589	1571.044434	63.666656
792.956604	1225.414673	1817.922852	1483.514893	43.560616
793.266418	1176.039063	1770.791504	1548.600952	62.641506
793.576172	1144.618164	1721.415894	1510.447021	63.424114
793.885925	1209.704224	1665.307129	1521.668823	68.472916
794.195557	1178.283325	1725.904541	1454.338257	50.409832
794.505249	1247.858154	1672.040161	1494.736572	58.201057
794.814697	1196.238159	1685.506226	1436.383545	49.082581
795.124207	1097.486816	1687.750610	1443.116577	58.555134
795.433655	1171.550293	1654.085449	1461.071411	60.000004
795.742981	1151.351196	1790.990723	1476.781860	50.877197
796.052307	1113.197266	1719.171509	1389.252197	45.555553
796.361572	1364.564331	1826.900269	1687.750610	69.902908
796.670776	1097.486816	1604.709717	1503.713989	80.088493
796.979919	1211.948608	1629.397583	1452.093994	57.526882
797.289063	1149.106812	1663.062744	1503.713989	68.995636
797.598083	1142.373779	1764.058472	1474.537476	53.429607
797.907043	1191.749390	1678.773193	1544.112305	72.350243
798.215942	1101.975464	1663.062744	1483.514893	68.000015
798.524841	1081.776367	1710.194092	1452.093994	58.928577
798.833618	1153.595459	1714.682861	1521.668823	65.600006
799.142334	1104.219849	1672.040161	1519.424438	73.122536
799.451050	1115.441528	1703.461060	1488.003540	63.358780
799.759644	1133.396362	1658.574097	1461.071411	62.393173
800.068237	1160.328613	1667.551514	1445.360962	56.194691
800.376770	1158.084229	1728.148926	1481.270508	56.692913
800.685242	1193.993774	1703.461060	1537.379272	67.400894
800.993652	1144.618164	1696.728027	1436.383545	52.845528
801.301941	1185.016357	1698.972412	1391.496582	40.174686
801.610291	1144.618164	1696.728027	1519.424438	67.886177
801.918457	1146.862427	1638.375000	1425.161743	56.620995
802.226624	1133.396362	1609.198364	1407.207031	57.547188
802.534790	1135.640747	1642.863647	1476.781860	67.256645
802.842773	1216.437256	1559.822754	1447.605225	67.320251
803.150818	1117.685913	1660.818481	1485.759155	67.768585
803.458740	1207.459839	1638.375000	1434.139160	52.604164
803.766663	1095.242432	1638.375000	1416.184326	59.090897
804.074463	1140.129395	1710.194092	1407.207031	46.850407
804.382202	1223.170288	1654.085449	1440.872192	50.520828
804.689941	1101.975464	1584.510620	1461.071411	74.418610
804.997559	1216.437256	1618.175781	1413.940063	49.162029
805.305176	1155.839844	1606.954102	1409.451294	56.218895
805.612732	1135.640747	1633.886230	1438.627808	60.810799
805.920227	1187.260742	1584.510620	1463.315674	69.491508
806.227600	1135.640747	1701.216675	1436.383545	53.174610
806.534973	1243.369507	1651.841064	1458.827026	52.747250
806.842285	1153.595459	1642.863647	1492.492188	69.266045
807.149475	1198.482544	1683.261963	1494.736572	61.111099
807.456726	1220.926025	1658.574097	1431.894775	48.205112
807.763855	1128.907715	1640.619263	1438.627808	60.526306
808.070923	1135.640747	1660.818481	1391.496582	48.717953
808.377991	1131.151978	1584.510620	1499.225342	81.188118
808.684937	1191.749390	1705.705444	1380.274780	36.681229
808.991821	1099.731079	1526.157471	1422.917358	75.789467
809.298645	1124.418945	1575.533203	1391.496582	59.203991
809.605469	1182.772095	1658.574097	1431.894775	52.358479
809.912170	1128.907715	1595.732300	1357.831299	49.038460
810.218811	1214.192993	1638.375000	1404.962646	44.973537
810.525513	1180.527710	1553.089722	1418.428711	63.855412
810.832031	1119.930298	1573.288818	1391.496582	59.901001
811.138550	1162.572876	1517.180054	1321.921753	44.936733
811.444946	1178.283325	1651.841064	1404.962646	47.867302
811.751343	1167.061646	1582.266235	1416.184326	59.999981
812.057678	1185.016357	1651.841064	1306.211304	25.961554
812.363892	1229.903442	1537.379272	1375.786133	47.445255
812.670105	1191.749390	1537.379272	1404.962646	61.688316
812.976257	1180.527710	1517.180054	1470.048706	85.999992
813.282349	1182.772095	1564.311401	1357.831299	45.882351
813.588379	1198.482544	1476.781860	1384.763428	66.935448
813.894409	1146.862427	1532.890503	1303.966919	40.697685
814.200256	1185.016357	1541.867920	1337.632202	42.767319
814.506165	1108.708496	1517.180054	1317.432983	51.098904
814.811951	1176.039063	1519.424438	1328.654785	44.444443
815.117676	1137.885010	1521.668823	1362.319946	58.479523
815.423401	1153.595459	1537.379272	1384.763428	60.233902
815.729004	1182.772095	1494.736572	1378.030396	62.589916
816.034607	1167.061646	1521.668823	1317.432983	42.405045
816.340149	1176.039063	1510.447021	1434.139160	77.181206
816.645508	1151.351196	1512.691406	1413.940063	72.670815
816.950989	1117.685913	1557.578369	1360.075684	55.102051
817.256226	1153.595459	1514.935791	1339.876465	51.552784
817.561523	1119.930298	1483.514893	1391.496582	74.691360
817.866760	1104.219849	1514.935791	1431.894775	79.781403
818.171936	1185.016357	1568.800171	1384.763428	52.046768
818.477051	1171.550293	1526.157471	1380.274780	58.860764
818.782043	1162.572876	1588.999268	1398.229614	55.263168
819.087036	1185.016357	1580.021851	1337.632202	38.636387
819.391907	1135.640747	1571.044434	1371.297363	54.123707
819.696838	1124.418945	1517.180054	1351.098267	57.714298
820.001587	1153.595459	1604.709717	1382.519165	50.746281
820.306396	1155.839844	1600.221069	1346.609497	42.929279
820.611145	1146.862427	1541.867920	1420.673096	69.318192
820.915710	1193.993774	1555.333984	1474.537476	77.639771
821.220276	1126.663330	1591.243652	1420.673096	63.285023
821.524780	1160.328613	1609.198364	1384.763428	49.999985
821.829285	1162.572876	1627.153198	1382.519165	47.343006
822.133667	1160.328613	1703.461060	1539.623535	69.834702
822.438049	1173.794678	1808.945435	1564.311401	61.484100
822.742371	1178.283325	1811.189819	1584.510620	64.184410
823.046570	1162.572876	2049.090820	1667.551514	56.962032
823.350708	1142.373779	2396.965088	1768.547241	49.910553
823.654785	1214.192993	2699.952148	1925.651611	47.885193
823.958862	1115.441528	2982.740234	2089.489258	52.163467
824.262878	1193.993774	3047.826172	2275.770020	58.353508
824.566772	1131.151978	2982.740234	2179.263184	56.606064
824.870667	1243.369507	2877.255615	2114.177002	53.296707
825.174438	1140.129395	2785.237305	2116.421387	59.345165
825.478210	1198.482544	2601.200684	1979.515991	55.680000
825.781921	1084.020630	2686.486084	1990.737793	56.582634
826.085571	1135.640747	2522.648438	1963.805542	59.708740
826.389160	1131.151978	2509.182373	1959.316895	60.097725
826.692688	1092.998047	2444.096436	1923.407349	61.461792
826.996094	1077.287598	2563.046875	1889.742065	54.682781
827.299500	1317.432983	2643.843506	2031.136108	53.807106
827.602905	1110.952881	2444.096436	1878.520264	57.575748
827.906128	1207.459839	2392.476318	1885.253418	57.196976
828.209412	1173.794678	2401.453613	1831.389038	53.564907
828.512573	1169.305908	2488.983398	1748.348022	43.877548
828.815613	1151.351196	2405.942383	1876.276001	57.781754
829.118713	1119.930298	2405.942383	1770.791504	50.610817
829.421692	1209.704224	2282.503174	1790.990723	54.184105
829.724670	1164.817261	2197.218018	1766.302856	58.260864
830.027527	1158.084229	2098.466553	1636.130615	50.835323
830.330322	1189.505127	2053.579590	1654.085449	53.766235
830.633118	1223.170288	2031.136108	1613.687134	48.333336
830.935791	1187.260742	1918.918579	1573.288818	52.760738
831.238464	1149.106812	1826.900269	1521.668823	54.966892
831.540955	1250.102539	1824.655884	1535.134888	49.609379
831.843567	1198.482544	1838.122070	1573.288818	58.596485
832.146057	1131.151978	1750.592407	1470.048706	54.710140
832.448364	1236.636475	1739.370605	1490.247925	50.446434
832.750793	1193.993774	1728.148926	1427.406128	43.697483
833.052979	1160.328613	1678.773193	1387.007813	43.722939
833.355225	1104.219849	1624.908813	1479.026123	71.982758
833.657410	1106.464233	1559.822754	1476.781860	81.683174
833.959534	1126.663330	1636.130615	1434.139160	60.352417
834.261597	1155.839844	1640.619263	1418.428711	54.166668
834.563538	1171.550293	1600.221069	1438.627808	62.303642
834.865540	1119.930298	1633.886230	1422.917358	58.951954
835.167358	1142.373779	1654.085449	1472.293091	64.473671
835.469177	1144.618164	1788.746338	1492.492188	54.006958
835.770935	1196.238159	1705.705444	1503.713989	60.352417
836.072632	1133.396362	1683.261963	1508.202637	68.163254
836.374268	1202.971191	1732.637573	1461.071411	48.728828
836.675842	1144.618164	1654.085449	1413.940063	52.863434
836.977356	1191.749390	1829.144653	1526.157471	52.464790
837.278809	1182.772095	1622.664551	1449.849609	60.714275
837.580200	1225.414673	1555.333984	1382.519165	47.619064
837.881470	1164.817261	1631.641846	1452.093994	61.538475
838.182800	1104.219849	1640.619263	1404.962646	56.066952
838.484070	1131.151978	1557.578369	1404.962646	64.210533
838.785217	1140.129395	1541.867920	1366.808716	56.424591
839.086365	1185.016357	1627.153198	1375.786133	43.147224
839.387329	1164.817261	1523.913086	1416.184326	70.000000
839.688293	1088.509399	1494.736572	1351.098267	64.640892
839.989258	1140.129395	1452.093994	1326.410400	59.712227
840.290100	1128.907715	1530.646240	1463.315674	83.240204
840.590942	1187.260742	1510.447021	1391.496582	63.194466
840.891663	1153.595459	1429.650513	1357.831299	73.983734
841.192383	1220.926025	1521.668823	1290.500854	23.134329
841.492920	1182.772095	1387.007813	1369.052979	91.208771
841.793518	1225.414673	1443.116577	1308.455566	38.144314
842.094116	1117.685913	1416.184326	1353.342651	78.947403
842.394470	1200.726807	1481.270508	1299.478271	35.200027
842.694885	1178.283325	1445.360962	1303.966919	47.058823
842.995178	1207.459839	1445.360962	1351.098267	60.377365
843.295471	1119.930298	1366.808716	1272.546021	61.818172
843.595642	1153.595459	1474.537476	1335.387817	56.643364
843.895874	1243.369507	1413.940063	1202.971191	-23.684225
844.195984	1117.685913	1440.872192	1328.654785	65.277794
844.495911	1369.052979	1824.655884	1611.442749	53.201981
844.795898	1155.839844	1456.582642	1312.944336	52.238823
845.095825	1216.437256	1404.962646	1312.944336	51.190495
845.395691	1169.305908	1420.673096	1256.835571	34.821434
845.695435	1099.731079	1391.496582	1290.500854	65.384621
845.995178	1133.396362	1357.831299	1238.880737	46.999981
846.294922	1162.572876	1360.075684	1270.301636	54.545433
846.594482	1167.061646	1326.410400	1263.568604	60.563358
846.894104	1124.418945	1387.007813	1270.301636	55.555550
847.193542	1095.242432	1250.102539	1330.899048	152.173874
847.492981	1110.952881	1312.944336	1236.636475	62.222233
847.792358	1180.527710	1306.211304	1272.546021	73.214256
848.091675	1214.192993	1319.677368	1297.233887	78.723404
848.390930	1243.369507	1306.211304	1220.926025	-35.714256
848.690063	1185.016357	1382.519165	1214.192993	14.772770
848.989197	1097.486816	1290.500854	1225.414673	66.279045
849.288269	1162.572876	1330.899048	1205.215576	25.333374
849.587341	1169.305908	1301.722534	1225.414673	42.372902
849.886353	1155.839844	1279.279053	1234.392090	63.636383
850.185181	1180.527710	1288.256470	1232.147705	47.916634
850.484009	1160.328613	1371.297363	1303.966919	68.085114
850.782715	1140.129395	1236.636475	1252.346924	116.279060
851.081543	1124.418945	1227.659058	1256.835571	128.260834
851.380127	1153.595459	1279.279053	1279.279053	100.000000
851.678711	1097.486816	1283.767822	1290.500854	103.614449
851.977295	1133.396362	1277.034668	1290.500854	109.375069
852.275757	1124.418945	1303.966919	1259.079956	75.000015
852.574158	1128.907715	1286.012085	1265.812988	87.142883
852.872437	1180.527710	1301.722534	1252.346924	59.259308
853.170837	1133.396362	1252.346924	1247.858154	96.226357
853.468994	1167.061646	1263.568604	1167.061646	0.000000
853.767212	1140.129395	1250.102539	1277.034668	124.489731
854.065369	1151.351196	1259.079956	1263.568604	104.166618
854.363403	1155.839844	1277.034668	1229.903442	61.111191
854.661377	1144.618164	1232.147705	1176.039063	35.897480
854.959290	1140.129395	1259.079956	1232.147705	77.358452
855.257202	1122.174561	1281.523438	1158.084229	22.535250
855.554993	1137.885010	1324.166016	1216.437256	42.168682
855.852722	1153.595459	1335.387817	1218.681641	35.802486
856.150452	1160.328613	1299.478271	1191.749390	22.580563
856.448059	1122.174561	1270.301636	1288.256470	112.121239
856.745667	1097.486816	1292.745117	1182.772095	43.678185
857.043152	1176.039063	1270.301636	1178.283325	2.380863
857.340637	1099.731079	1261.324219	1191.749390	56.944443
857.638000	1214.192993	1216.437256	1214.192993	0.000000
857.935303	1146.862427	1256.835571	1180.527710	30.612276
858.232666	1193.993774	1225.414673	1196.238159	7.142968
858.529785	1149.106812	1236.636475	1247.858154	112.820427
858.826965	1171.550293	1283.767822	1169.305908	-2.000031
859.124023	1180.527710	1277.034668	1167.061646	-13.953465
859.421082	1214.192993	1333.143433	1254.591187	33.962208
859.718079	1160.328613	1234.392090	1191.749390	42.424118
860.014893	1144.618164	1281.523438	1250.102539	77.049171
860.311768	1146.862427	1256.835571	1202.971191	51.020424
860.608582	1151.351196	1342.120850	1185.016357	17.647020
860.905334	1176.039063	1301.722534	1162.572876	-10.714366
861.201904	1185.016357	1245.613770	1243.369507	96.296440
861.498535	1196.238159	1317.432983	1220.926025	20.370396
861.795166	1158.084229	1270.301636	1187.260742	25.999989
862.091614	1153.595459	1274.790405	1227.659058	61.111130
862.388000	1077.287598	1308.455566	1205.215576	55.339836
862.684326	1135.640747	1281.523438	1211.948608	52.307686
862.980713	1108.708496	1223.170288	1207.459839	86.274506
863.276917	1149.106812	1290.500854	1247.858154	69.841232
863.573120	1162.572876	1265.812988	1326.410400	158.695602
863.869263	1171.550293	1308.455566	1238.880737	49.180313
864.165283	1108.708496	1294.989502	1193.993774	45.783131
864.461304	1149.106812	1263.568604	1225.414673	66.666664
864.757263	1205.215576	1198.482544	1306.211304	-1500.003662
865.053162	1140.129395	1259.079956	1268.057373	107.547180
865.348938	1126.663330	1254.591187	1310.699951	143.859695
865.644653	1250.102539	1225.414673	1259.079956	-36.363682
865.940430	1133.396362	1223.170288	1236.636475	115.000107
866.236023	1198.482544	1286.012085	1234.392090	41.025631
866.531616	1182.772095	1261.324219	1247.858154	82.857162
866.827087	1176.039063	1277.034668	1180.527710	4.444399
867.122559	1149.106812	1229.903442	1169.305908	24.999924
867.418030	1113.197266	1286.012085	1158.084229	25.974024
867.713257	1151.351196	1236.636475	1211.948608	71.052605
868.008545	1160.328613	1238.880737	1209.704224	62.857128
868.303772	1153.595459	1333.143433	1223.170288	38.749992
868.598938	1178.283325	1277.034668	1162.572876	-15.909100
868.893982	1090.753784	1241.125122	1151.351196	40.298512
869.189026	1155.839844	1238.880737	1216.437256	72.972977
869.484009	1202.971191	1353.342651	1225.414673	14.925360
869.778931	1160.328613	1202.971191	1220.926025	142.105408
870.073730	1162.572876	1227.659058	1189.505127	41.379368
870.368469	1196.238159	1189.505127	1202.971191	-100.000000
870.663269	1081.776367	1333.143433	1155.839844	29.464272
870.957886	1075.043335	1227.659058	1238.880737	107.352898
871.252502	1160.328613	1254.591187	1207.459839	49.999935
871.547058	1153.595459	1229.903442	1200.726807	61.764637
871.841553	1113.197266	1180.527710	1220.926025	160.000076
872.135986	1128.907715	1279.279053	1155.839844	17.910414
872.430237	1209.704224	1232.147705	1205.215576	-19.999783
872.724609	1185.016357	1234.392090	1202.971191	36.363682
873.018860	1182.772095	1283.767822	1191.749390	8.888787
873.312988	1144.618164	1200.726807	1254.591187	196.000153
873.607117	1106.464233	1234.392090	1162.572876	43.859596
873.901123	1124.418945	1220.926025	1243.369507	123.255791
874.195190	1225.414673	1263.568604	1153.595459	-188.235428
874.489075	1144.618164	1218.681641	1211.948608	90.909103
874.782959	1160.328613	1308.455566	1167.061646	4.545447
875.076782	1153.595459	1254.591187	1182.772095	28.888981
875.370483	1149.106812	1216.437256	1236.636475	130.000122
875.664246	1122.174561	1193.993774	1162.572876	56.250011
875.957764	1182.772095	1236.636475	1193.993774	20.833210
876.251343	1106.464233	1185.016357	1191.749390	108.571419
876.544861	1099.731079	1227.659058	1180.527710	63.157906
876.838257	1155.839844	1312.944336	1198.482544	27.142891
877.131714	1117.685913	1218.681641	1265.812988	146.666672
877.424988	1144.618164	1283.767822	1254.591187	79.032188
877.718262	1225.414673	1238.880737	1189.505127	-266.666962
878.011414	1115.441528	1250.102539	1247.858154	98.333305
878.304565	1122.174561	1283.767822	1182.772095	37.500038
878.597595	1162.572876	1236.636475	1245.613770	112.121063
878.890625	1144.618164	1357.831299	1241.125122	45.263138
879.183594	1209.704224	1272.546021	1220.926025	17.857225
879.476440	1196.238159	1245.613770	1180.527710	-31.818237
879.769287	1155.839844	1205.215576	1164.817261	18.181841
880.062012	1167.061646	1281.523438	1153.595459	-11.764788
880.354736	1214.192993	1299.478271	1227.659058	15.789436
880.647461	1185.016357	1225.414673	1243.369507	144.444519
880.940002	1167.061646	1247.858154	1193.993774	33.333282
881.232483	1117.685913	1245.613770	1191.749390	57.894722
881.524902	1066.065918	1256.835571	1185.016357	62.352917
881.817383	1158.084229	1265.812988	1209.704224	47.916634
882.109680	1133.396362	1328.654785	1223.170288	45.976978
882.401917	1131.151978	1202.971191	1229.903442	137.500061
882.694153	1137.885010	1348.853882	1261.324219	58.510628
882.986328	1180.527710	1366.808716	1225.414673	24.096371
883.278442	1160.328613	1324.166016	1288.256470	78.082207
883.570374	1153.595459	1427.406128	1268.057373	41.803307
883.862366	1131.151978	1490.247925	1308.455566	49.374989
884.154236	1196.238159	1575.533203	1380.274780	48.520702
884.446106	1131.151978	1618.175781	1362.319946	47.465435
884.737915	1182.772095	1586.754883	1308.455566	31.111095
885.029602	1171.550293	1602.465332	1413.940063	56.250015
885.321228	1117.685913	1615.931396	1389.252197	54.504517
885.612793	1133.396362	1615.931396	1440.872192	63.720932
885.904358	1223.170288	1602.465332	1371.297363	39.053257
886.195801	1117.685913	1600.221069	1389.252197	56.279068
886.487244	1167.061646	1539.623535	1404.962646	63.855431
886.778564	1173.794678	1568.800171	1400.473877	57.386341
887.069885	1133.396362	1550.845337	1384.763428	60.215038
887.361145	1153.595459	1568.800171	1373.541748	52.972977
887.652222	1171.550293	1407.207031	1398.229614	96.190468
887.943359	1193.993774	1429.650513	1294.989502	42.857136
888.234436	1153.595459	1382.519165	1312.944336	69.607857
888.525330	1122.174561	1481.270508	1355.586914	65.000000
888.816284	1144.618164	1342.120850	1402.718262	130.681824
889.107117	1101.975464	1369.052979	1277.034668	65.546219
889.397888	1084.020630	1299.478271	1288.256470	94.791641
889.688599	1088.509399	1290.500854	1211.948608	61.111103
889.979309	1162.572876	1328.654785	1279.279053	70.270256
890.269897	1117.685913	1317.432983	1245.613770	64.044922
890.560425	1140.129395	1335.387817	1247.858154	55.172401
890.850891	1144.618164	1342.120850	1223.170288	39.772686
891.141296	1178.283325	1288.256470	1211.948608	30.612276
891.431702	1097.486816	1355.586914	1178.283325	31.304331
891.721924	1155.839844	1256.835571	1178.283325	22.222208
>>>>>End Processed Spectral Data<<<<<
