Jaz Data File
++++++++++++++++++++++++++++++++++++
Date: Sun Feb 19 19:26:20 2023
User: jaz
Dark Spectrum Present: Yes
Reference Spectrum Present: Yes
Processed Spectrum Present: Yes
Spectrometers: JAZA2503
Integration Time (usec): 88500 (JAZA2503)
Spectra Averaged: 1 (JAZA2503)
Boxcar Smoothing: 0 (JAZA2503)
Correct for Electrical Dark: No (JAZA2503)
Strobe/Lamp Enabled: Yes (JAZA2503)
Correct for Detector Non-linearity: No (JAZA2503)
Correct for Stray Light: No (JAZA2503)
Number of Pixels in Processed Spectrum: 2048
>>>>>Begin Processed Spectral Data<<<<<
W	D	R	S	P
189.466537	0.000000	0.000000	0.000000	0.000000
189.851624	0.000000	0.000000	0.000000	0.000000
190.236694	1164.817261	1113.197266	1162.572876	4.347898
190.621719	1144.618164	1182.772095	1225.414673	211.764572
191.006714	1205.215576	1196.238159	1155.839844	549.999329
191.391693	1115.441528	1218.681641	1140.129395	23.913055
191.776627	1153.595459	1220.926025	1160.328613	10.000145
192.161530	1245.613770	1162.572876	1205.215576	48.648552
192.546402	1128.907715	1140.129395	1160.328613	280.001740
192.931259	1205.215576	1182.772095	1193.993774	50.000271
193.316071	1227.659058	1162.572876	1164.817261	96.551674
193.700851	1115.441528	1178.283325	1191.749390	121.428513
194.085617	1153.595459	1196.238159	1261.324219	252.631180
194.470337	1155.839844	1193.993774	1220.926025	170.588409
194.855026	1151.351196	1113.197266	1178.283325	-70.588081
195.239685	1149.106812	1160.328613	1160.328613	100.000000
195.624313	1270.301636	1185.016357	1218.681641	60.526268
196.008911	1137.885010	1178.283325	1099.731079	-94.444359
196.393494	1205.215576	1187.260742	1137.885010	374.999664
196.778030	1146.862427	1149.106812	1189.505127	1899.972778
197.162521	1151.351196	1200.726807	1151.351196	0.000000
197.546982	1225.414673	1140.129395	1158.084229	78.947327
197.931442	1182.772095	1151.351196	1110.952881	228.571487
198.315857	1135.640747	1223.170288	1101.975464	-38.461624
198.700241	1153.595459	1178.283325	1185.016357	127.272636
199.084595	1196.238159	1151.351196	1160.328613	79.999947
199.468918	1160.328613	1202.971191	1113.197266	-110.526497
199.853210	1133.396362	1153.595459	1176.039063	211.111923
200.237473	1200.726807	1178.283325	1128.907715	319.999786
200.621704	1189.505127	1162.572876	1160.328613	108.332993
201.005890	1164.817261	1236.636475	1131.151978	-46.875038
201.390060	1158.084229	1281.523438	1115.441528	-34.545506
201.774200	1144.618164	1140.129395	1135.640747	199.997284
202.158310	1092.998047	1169.305908	1061.577148	-41.176491
202.542374	1137.885010	1146.862427	1149.106812	125.000343
202.926422	1133.396362	1220.926025	1189.505127	64.102570
203.310425	1126.663330	1176.039063	1137.885010	22.727116
203.694397	1167.061646	1198.482544	1131.151978	-114.285934
204.078369	1110.952881	1189.505127	1090.753784	-25.714220
204.462280	1126.663330	1238.880737	1124.418945	-2.000033
204.846161	1113.197266	1185.016357	1182.772095	96.875114
205.230026	1131.151978	1227.659058	1144.618164	13.953573
205.613861	1128.907715	1090.753784	1140.129395	-29.411594
205.997650	1149.106812	1207.459839	1086.265015	-107.692436
206.381409	1207.459839	1173.794678	1128.907715	233.333572
206.765137	1151.351196	1169.305908	1108.708496	-237.501450
207.148834	1126.663330	1155.839844	1180.527710	184.615540
207.532501	1160.328613	1182.772095	1133.396362	-120.000328
207.916138	1137.885010	1178.283325	1164.817261	66.666771
208.299744	1104.219849	1162.572876	1128.907715	42.307774
208.683319	1185.016357	1250.102539	1095.242432	-137.930847
209.066879	1196.238159	1247.858154	1122.174561	-143.478500
209.450378	1126.663330	1238.880737	1101.975464	-22.000032
209.833847	1133.396362	1243.369507	1133.396362	0.000000
210.217300	1106.464233	1173.794678	1173.794678	100.000000
210.600723	1142.373779	1149.106812	1081.776367	-900.001831
210.984100	1140.129395	1169.305908	1106.464233	-115.384453
211.367462	1090.753784	1151.351196	1171.550293	133.333267
211.750793	1133.396362	1220.926025	1119.930298	-15.384572
212.134079	1187.260742	1146.862427	1185.016357	5.555639
212.517334	1117.685913	1160.328613	1187.260742	163.157654
212.900574	1158.084229	1178.283325	1155.839844	-11.111313
213.283768	1167.061646	1115.441528	1158.084229	17.391315
213.666931	1176.039063	1265.812988	1236.636475	67.500015
214.050079	1180.527710	1160.328613	1126.663330	266.667267
214.433182	1173.794678	1137.885010	1133.396362	112.499832
214.816238	1149.106812	1252.346924	1180.527710	30.434778
215.199280	1176.039063	1198.482544	1182.772095	29.999945
215.582291	1142.373779	1225.414673	1137.885010	-5.405493
215.965271	1146.862427	1173.794678	1223.170288	283.332642
216.348206	1187.260742	1193.993774	1142.373779	-666.667847
216.731140	1176.039063	1155.839844	1122.174561	266.666260
217.113998	1110.952881	1218.681641	1151.351196	37.500027
217.496841	1092.998047	1180.527710	1084.020630	-10.256428
217.879684	1133.396362	1216.437256	1092.998047	-48.648701
218.262466	1149.106812	1173.794678	1153.595459	18.181593
218.645218	1167.061646	1225.414673	1167.061646	0.000000
219.027939	1158.084229	1232.147705	1131.151978	-36.363743
219.410629	1196.238159	1173.794678	1097.486816	440.000122
219.793289	1097.486816	1173.794678	1104.219849	8.823510
220.175934	1137.885010	1160.328613	1124.418945	-59.999565
220.558533	1193.993774	1216.437256	1171.550293	-100.000000
220.941071	1090.753784	1216.437256	1149.106812	46.428562
221.323608	1115.441528	1142.373779	1124.418945	33.333332
221.706116	1101.975464	1173.794678	1155.839844	74.999954
222.088593	1144.618164	1164.817261	1173.794678	144.444641
222.471024	1135.640747	1162.572876	1095.242432	-150.000458
222.853424	1135.640747	1167.061646	1117.685913	-57.142967
223.235794	1104.219849	1223.170288	1153.595459	41.509396
223.618134	1146.862427	1290.500854	1115.441528	-21.874994
224.000443	1185.016357	1200.726807	1151.351196	-214.285156
224.382736	1108.708496	1167.061646	1131.151978	38.461475
224.764969	1142.373779	1281.523438	1144.618164	1.612929
225.147202	1131.151978	1259.079956	1142.373779	8.771968
225.529373	1164.817261	1229.903442	1151.351196	-20.689590
225.911530	1113.197266	1281.523438	1176.039063	37.333347
226.293625	1191.749390	1229.903442	1146.862427	-117.646645
226.675720	1218.681641	1243.369507	1162.572876	-227.272644
227.057785	1124.418945	1286.012085	1149.106812	15.277794
227.439804	1099.731079	1241.125122	1153.595459	38.095226
227.821793	1137.885010	1241.125122	1173.794678	34.782669
228.203751	1142.373779	1263.568604	1144.618164	1.851882
228.585663	1101.975464	1371.297363	1128.907715	10.000023
228.967560	1104.219849	1297.233887	1140.129395	18.604630
229.349426	1169.305908	1333.143433	1178.283325	5.479463
229.731247	1097.486816	1366.808716	1200.726807	38.333305
230.113052	1124.418945	1427.406128	1115.441528	-2.962969
230.494827	1050.355469	1568.800171	1104.219849	10.389609
230.876541	1155.839844	1654.085449	1155.839844	0.000000
231.258240	1209.704224	1642.863647	1099.731079	-25.388607
231.639923	1122.174561	1600.221069	1021.178894	-21.126745
232.021545	1158.084229	1555.333984	1191.749390	8.474558
232.403137	1144.618164	1532.890503	1137.885010	-1.734132
232.784729	1113.197266	1532.890503	1155.839844	10.160416
233.166275	1131.151978	1494.736572	1101.975464	-8.024684
233.547760	1090.753784	1472.293091	1095.242432	1.176457
233.929230	1115.441528	1472.293091	1113.197266	-0.628906
234.310684	1095.242432	1429.650513	1158.084229	18.791948
234.692078	1227.659058	1438.627808	1131.151978	-45.744728
235.073471	1164.817261	1461.071411	1140.129395	-8.333341
235.454819	1122.174561	1483.514893	1113.197266	-2.484443
235.836121	1122.174561	1467.804443	1227.659058	30.519495
236.217392	1187.260742	1382.519165	1144.618164	-21.839046
236.598663	1209.704224	1431.894775	1214.192993	2.020234
236.979874	1187.260742	1479.026123	1158.084229	-9.999991
237.361038	1209.704224	1395.985229	1250.102539	21.686760
237.742203	1200.726807	1436.383545	1128.907715	-30.476147
238.123322	1223.170288	1562.067017	1126.663330	-28.476805
238.504395	1153.595459	1449.849609	1122.174561	-10.606062
238.885452	1140.129395	1514.935791	1149.106812	2.395215
239.266479	1196.238159	1512.691406	1146.862427	-15.602852
239.647446	1137.885010	1465.560059	1128.907715	-2.739694
240.028427	1180.527710	1553.089722	1185.016357	1.204805
240.409348	1178.283325	1611.442749	1126.663330	-11.917089
240.790222	1066.065918	1559.822754	1066.065918	0.000000
241.171082	1151.351196	1629.397583	1178.283325	5.633790
241.551910	1155.839844	1683.261963	1158.084229	0.425539
241.932693	1119.930298	1600.221069	1169.305908	10.280358
242.313446	1209.704224	1703.461060	1162.572876	-9.545457
242.694199	1104.219849	1811.189819	1146.862427	6.031738
243.074875	1189.505127	1898.719482	1171.550293	-2.531651
243.455536	1187.260742	2111.932617	1151.351196	-3.883491
243.836151	1142.373779	2194.973633	1066.065918	-7.249465
244.216766	1176.039063	2266.792725	1106.464233	-6.378602
244.597321	1149.106812	2334.123291	1131.151978	-1.515155
244.977859	1229.903442	2291.480469	1144.618164	-8.033829
245.358353	1142.373779	2201.706543	1115.441528	-2.542379
245.738815	1126.663330	2132.131836	1097.486816	-2.901783
246.119232	1110.952881	2026.647339	1178.283325	7.352938
246.499649	1133.396362	2051.335205	1115.441528	-1.955995
246.880020	1164.817261	2026.647339	1167.061646	0.260421
247.260330	1160.328613	2069.290039	1108.708496	-5.679022
247.640656	1126.663330	2318.412842	1101.975464	-2.071565
248.020905	1095.242432	2612.422607	1144.618164	3.254441
248.401138	1164.817261	2901.943604	1137.885010	-1.550391
248.781342	1200.726807	3117.401123	1108.708496	-4.800936
249.161514	1171.550293	3204.930664	1144.618164	-1.324500
249.541641	1171.550293	3090.468994	1182.772095	0.584798
249.921753	1151.351196	2967.029785	1106.464233	-2.472187
250.301819	1088.509399	2731.373047	1146.862427	3.551909
250.681854	1097.486816	2598.956543	1135.640747	2.541106
251.061844	1050.355469	2374.521484	1126.663330	5.762711
251.441833	1200.726807	2331.878906	1169.305908	-2.777778
251.821762	1149.106812	2168.041260	1169.305908	1.982375
252.201660	1158.084229	2076.022949	1135.640747	-2.444987
252.581558	1158.084229	2044.602173	1101.975464	-6.329118
252.961380	1124.418945	2183.751709	1164.817261	3.813562
253.341187	1135.640747	2262.303955	1178.283325	3.784856
253.720947	1128.907715	2334.123291	1209.704224	6.703905
254.100693	1144.618164	2376.765869	1176.039063	2.550092
254.480392	1119.930298	2264.548340	1176.039063	4.901964
254.860077	1084.020630	2174.774414	1153.595459	6.378601
255.239716	1164.817261	2125.398682	1115.441528	-5.140193
255.619308	1151.351196	2069.290039	1180.527710	3.178481
255.998886	1151.351196	1999.715210	1122.174561	-3.439165
256.378418	1144.618164	2008.692627	1162.572876	2.077913
256.757904	1146.862427	2031.136108	1128.907715	-2.030447
257.137421	1128.907715	2051.335205	1151.351196	2.433089
257.516846	1193.993774	2120.909912	1209.704224	1.694916
257.896240	1119.930298	2019.914307	1189.505127	7.730674
258.275604	1185.016357	2177.018799	1171.550293	-1.357463
258.654968	1162.572876	2201.706543	1214.192993	4.967611
259.034271	1137.885010	2289.236328	1162.572876	2.144251
259.413513	1169.305908	2325.145752	1110.952881	-5.048539
259.792816	1252.346924	2459.806885	1153.595459	-8.178447
260.171997	1158.084229	2693.218994	1162.572876	0.292394
260.551147	1164.817261	2906.432373	1169.305908	0.257729
260.930267	1182.772095	3204.930664	1146.862427	-1.775809
261.309418	1155.839844	3617.890869	1187.260742	1.276208
261.688507	1200.726807	3707.665039	1169.305908	-1.253358
262.067535	1193.993774	3617.890869	1169.305908	-1.018520
262.446503	1200.726807	3559.537842	1158.084229	-1.807800
262.825500	1178.283325	3261.039551	1142.373779	-1.724136
263.204437	1068.310181	3222.885498	1144.618164	3.541672
263.583313	1155.839844	2962.541016	1171.550293	0.869565
263.962189	1151.351196	2915.409668	1160.328613	0.508907
264.341064	1180.527710	2695.463379	1155.839844	-1.629631
264.719849	1164.817261	2533.870361	1196.238159	2.295083
265.098602	1153.595459	2558.558105	1158.084229	0.319494
265.477356	1119.930298	2453.073730	1187.260742	5.050503
265.856049	1142.373779	2569.779785	1207.459839	4.559744
266.234711	1133.396362	2488.983398	1173.794678	2.980134
266.613342	1108.708496	2437.363281	1146.862427	2.871621
266.991974	1092.998047	2598.956543	1167.061646	4.918037
267.370544	1108.708496	2661.798096	1140.129395	2.023122
267.749084	1104.219849	2668.531250	1164.817261	3.873744
268.127563	1185.016357	2695.463379	1106.464233	-5.200588
268.506012	1176.039063	2765.038330	1140.129395	-2.259892
268.884491	1220.926025	2935.608887	1202.971191	-1.047123
269.262848	1146.862427	2915.409668	1202.971191	3.172591
269.641235	1167.061646	2962.541016	1097.486816	-3.875000
270.019562	1218.681641	2841.346191	1104.219849	-7.053940
270.397888	1133.396362	2913.165283	1144.618164	0.630520
270.776123	1115.441528	2962.541016	1155.839844	2.187122
271.154358	1187.260742	2949.074951	1131.151978	-3.184715
271.532562	1155.839844	2955.807861	1108.708496	-2.618455
271.910706	1133.396362	2991.717529	1162.572876	1.570047
272.288879	1214.192993	3310.415039	1133.396362	-3.854393
272.666962	1119.930298	3330.614258	1180.527710	2.741116
273.045013	1191.749390	3510.162109	1133.396362	-2.516939
273.423035	1164.817261	3510.162109	1193.993774	1.244018
273.801025	1133.396362	3373.256836	1265.812988	5.911825
274.179016	1124.418945	3469.763916	1167.061646	1.818185
274.556915	1135.640747	3472.008301	1108.708496	-1.152740
274.934814	1088.509399	3537.094482	1160.328613	2.933090
275.312653	1104.219849	3395.700439	1191.749390	3.819781
275.690491	1189.505127	3294.704590	1205.215576	0.746269
276.068268	1126.663330	3200.442139	1160.328613	1.623379
276.446014	1171.550293	3216.152344	1110.952881	-2.963775
276.823761	1133.396362	3308.170898	1108.708496	-1.135192
277.201477	1106.464233	3281.238525	1106.464233	0.000000
277.579102	1135.640747	3404.677734	1084.020630	-2.274979
277.956726	1115.441528	3303.682129	1191.749390	3.487179
278.334290	1137.885010	3236.351563	1169.305908	1.497327
278.711853	1209.704224	3357.546387	1173.794678	-1.671889
279.089355	1149.106812	3362.035156	1160.328613	0.507102
279.466858	1176.039063	3341.835938	1126.663330	-2.279795
279.844299	1187.260742	3337.347412	1137.885010	-2.296453
280.221710	1142.373779	3362.035156	1144.618164	0.101114
280.599091	1187.260742	3382.234375	1126.663330	-2.760735
280.976440	1153.595459	3395.700439	1115.441528	-1.701701
281.353790	1124.418945	3350.813477	1185.016357	2.721773
281.731018	1164.817261	3530.361328	1164.817261	0.000000
282.108276	1137.885010	3602.180420	1153.595459	0.637523
282.485474	1164.817261	3730.108398	1187.260742	0.874890
282.862671	1200.726807	3781.728516	1158.084229	-1.652172
283.239807	1110.952881	3923.122559	1135.640747	0.877894
283.616882	1209.704224	4073.493896	1180.527710	-1.018808
283.993988	1088.509399	4273.240723	1182.772095	2.959832
284.371002	1144.618164	4228.354004	1176.039063	1.018923
284.747986	1117.685913	4165.512207	1077.287598	-1.325480
285.125000	1182.772095	4154.290527	1171.550293	-0.377645
285.501923	1090.753784	4194.688965	1108.708496	0.578450
285.878815	1185.016357	4273.240723	1162.572876	-0.726744
286.255646	1200.726807	4347.304688	1167.061646	-1.069898
286.632507	1171.550293	4605.404785	1176.039063	0.130721
287.009308	1144.618164	4670.490723	1202.971191	1.654995
287.386078	1104.219849	4753.531738	1189.505127	2.337023
287.762787	1088.509399	4915.125000	1160.328613	1.876834
288.139465	1110.952881	4928.590820	1232.147705	3.174602
288.516113	1068.310181	4883.704102	1146.862427	2.058824
288.892731	1117.685913	4666.001953	1173.794678	1.581279
289.269379	1117.685913	4762.509277	1092.998047	-0.677341
289.645905	1151.351196	4661.513184	1211.948608	1.726342
290.022430	1185.016357	4762.509277	1180.527710	-0.125469
290.398895	1155.839844	4960.011719	1137.885010	-0.471977
290.775330	1122.174561	4946.545898	1146.862427	0.645541
291.151764	1176.039063	5022.853516	1185.016357	0.233370
291.528137	1160.328613	5137.315430	1095.242432	-1.636570
291.904510	1200.726807	5496.411133	1113.197266	-2.037616
292.280823	1167.061646	5592.918457	1173.794678	0.152129
292.657074	1151.351196	5417.858887	1173.794678	0.526039
293.033325	1142.373779	5597.407227	1117.685913	-0.554157
293.409515	1122.174561	5678.203613	1176.039063	1.182269
293.785706	1122.174561	5619.850586	1137.885010	0.349302
294.161865	1110.952881	5536.809570	1088.509399	-0.507099
294.537964	1160.328613	5622.094727	1117.685913	-0.955736
294.914032	1063.821533	5913.860352	1160.328613	1.989821
295.290039	1137.885010	5913.860352	1243.369507	2.208648
295.666046	1124.418945	6315.598633	1142.373779	0.345872
296.041992	1236.636475	6445.770996	1243.369507	0.129254
296.417969	1158.084229	6845.265137	1196.238159	0.670876
296.793854	1265.812988	6838.532227	1164.817261	-1.812324
297.169708	1142.373779	7087.654785	1200.726807	0.981502
297.545502	1133.396362	7251.492188	1151.351196	0.293471
297.921295	1191.749390	7781.158691	1229.903442	0.579021
298.297028	1153.595459	8045.992188	1142.373779	-0.162812
298.672760	1162.572876	8111.078125	1189.505127	0.387598
299.048492	1211.948608	8214.318359	1209.704224	-0.032052
299.424133	1164.817261	8191.874512	1214.192993	0.702652
299.799744	1135.640747	7870.932617	1200.726807	0.966344
300.175293	1149.106812	7918.063965	1151.351196	0.033157
300.550842	1097.486816	7556.724121	1200.726807	1.598331
300.926361	1115.441528	7386.153320	1137.885010	0.357910
301.301788	1185.016357	7316.578613	1124.418945	-0.988287
301.677277	1198.482544	7202.116699	1126.663330	-1.196262
302.052704	1214.192993	7051.745117	1135.640747	-1.345637
302.428040	1238.880737	7103.365234	1070.554565	-2.870264
302.803375	1142.373779	7148.252441	1146.862427	0.074738
303.178650	1149.106812	7029.301758	1182.772095	0.572520
303.553955	1115.441528	7027.057617	1209.704224	1.594533
303.929169	1131.151978	6961.971191	1211.948608	1.385682
304.304352	1160.328613	6672.450195	1140.129395	-0.366451
304.679504	1162.572876	6735.291992	1155.839844	-0.120821
305.054657	1155.839844	6643.273926	1151.351196	-0.081799
305.429718	1133.396362	6443.526855	1198.482544	1.225698
305.804779	1124.418945	6564.721680	1126.663330	0.041255
306.179810	1155.839844	6712.848633	1171.550293	0.282714
306.554779	1155.839844	6562.477051	1189.505127	0.622666
306.929718	1146.862427	6468.214355	1140.129395	-0.126529
307.304626	1099.731079	6407.617188	1124.418945	0.465117
307.679474	1128.907715	6400.884277	1211.948608	1.575138
308.054321	1205.215576	6418.838867	1176.039063	-0.559621
308.429138	1075.043335	6557.988281	1187.260742	2.046663
308.803925	1122.174561	6650.006836	1216.437256	1.705238
309.178680	1167.061646	6764.468750	1131.151978	-0.641541
309.553345	1135.640747	7020.324219	1225.414673	1.525552
309.928009	1149.106812	6896.885254	1202.971191	0.937134
310.302643	1191.749390	7141.519043	1164.817261	-0.452658
310.677246	1124.418945	7148.252441	1133.396362	0.149032
311.051758	1108.708496	7386.153320	1225.414673	1.859135
311.426300	1209.704224	7435.528809	1196.238159	-0.216294
311.800781	1133.396362	7536.524902	1187.260742	0.841220
312.175232	1155.839844	7747.493652	1135.640747	-0.306434
312.549652	1140.129395	7624.054199	1211.948608	1.107650
312.924042	1095.242432	7606.099609	1117.685913	0.344709
313.298401	1158.084229	7489.393555	1187.260742	0.460829
313.672699	1191.749390	7500.615234	1216.437256	0.391320
314.046967	1122.174561	7336.777832	1227.659058	1.697365
314.421204	1198.482544	7516.325684	1205.215576	0.106572
314.795380	1160.328613	7345.754883	1142.373779	-0.290276
315.169556	1176.039063	7307.601074	1211.948608	0.585651
315.543671	1151.351196	7583.656250	1119.930298	-0.488486
315.917786	1137.885010	7428.795898	1178.283325	0.642170
316.291809	1162.572876	7543.257813	1149.106812	-0.211044
316.665863	1063.821533	7460.216797	1223.170288	2.491227
317.039856	1160.328613	7285.157715	1202.971191	0.696225
317.413818	1122.174561	7148.252441	1218.681641	1.601491
317.787750	1133.396362	7168.451660	1191.749390	0.966901
318.161591	1113.197266	7166.207031	1151.351196	0.630330
318.535461	1124.418945	7020.324219	1227.659058	1.751048
318.909271	1101.975464	6921.573242	1187.260742	1.465484
319.283020	1162.572876	6865.464355	1146.862427	-0.275482
319.656769	1158.084229	6786.912109	1189.505127	0.558214
320.030457	1187.260742	6860.975586	1133.396362	-0.949367
320.404144	1164.817261	6863.220215	1173.794678	0.157543
320.777740	1146.862427	7116.831543	1227.659058	1.353384
321.151337	1061.577148	7204.360840	1196.238159	2.192182
321.524902	1173.794678	6710.604004	1191.749390	0.324279
321.898407	1198.482544	6843.020996	1126.663330	-1.272366
322.271881	1209.704224	7013.591309	1207.459839	-0.038670
322.645355	1135.640747	7031.546387	1205.215576	1.180053
323.018799	1185.016357	7013.591309	1245.613770	1.039661
323.392151	1153.595459	7045.012207	1207.459839	0.914286
323.765503	1131.151978	7101.121094	1205.215576	1.240603
324.138794	1117.685913	7260.469727	1198.482544	1.315310
324.512054	1115.441528	7558.968262	1196.238159	1.253919
324.885284	1104.219849	7915.819824	1162.572876	0.856671
325.258484	1158.084229	8084.145996	1207.459839	0.712896
325.631683	1153.595459	8340.001953	1187.260742	0.468458
326.004761	1097.486816	8524.038086	1211.948608	1.541251
326.377869	1110.952881	8259.205078	1122.174561	0.156985
326.750916	1144.618164	8499.350586	1126.663330	-0.244126
327.123932	1097.486816	8396.110352	1176.039063	1.076261
327.496948	1133.396362	8515.060547	1149.106812	0.212831
327.869843	1158.084229	8667.676758	1119.930298	-0.508069
328.242767	1122.174561	8429.775391	1131.151978	0.122850
328.615631	1171.550293	8562.192383	1153.595459	-0.242940
328.988464	1176.039063	8315.313477	1160.328613	-0.220057
329.361267	1160.328613	8256.960938	1149.106812	-0.158129
329.734009	1122.174561	8189.630371	1137.885010	0.222293
330.106781	1169.305908	8138.010254	1158.084229	-0.161030
330.479431	1182.772095	8140.254883	1196.238159	0.193548
330.852112	1151.351196	7974.172852	1196.238159	0.657894
331.224731	1075.043335	8052.725098	1225.414673	2.155033
331.597321	1140.129395	8010.082520	1259.079956	1.731461
331.969879	1151.351196	8070.679688	1173.794678	0.324359
332.342377	1153.595459	8007.837891	1234.392090	1.178783
332.714874	1182.772095	8057.213867	1122.174561	-0.881490
333.087280	1133.396362	8113.322266	1205.215576	1.028939
333.459686	1155.839844	8281.648438	1223.170288	0.944881
333.832062	1099.731079	8420.798828	1189.505127	1.226243
334.204376	1164.817261	8667.676758	1223.170288	0.777744
334.576660	1146.862427	8573.414063	1176.039063	0.392869
334.948914	1158.084229	8779.894531	1140.129395	-0.235572
335.321136	1205.215576	8732.762695	1126.663330	-1.043530
335.693298	1137.885010	8793.360352	1171.550293	0.439754
336.065460	1115.441528	8672.165039	1171.550293	0.742501
336.437561	1185.016357	8777.649414	1155.839844	-0.384274
336.809631	1149.106812	8548.726563	1254.591187	1.425538
337.181702	1122.174561	8928.021484	1135.640747	0.172514
337.553650	1149.106812	8730.518555	1133.396362	-0.207223
337.925659	1155.839844	8963.930664	1140.129395	-0.201207
338.297577	1090.753784	8743.984375	1153.595459	0.821113
338.669464	1151.351196	8730.518555	1214.192993	0.829139
339.041290	1117.685913	8589.125000	1189.505127	0.961250
339.413116	1142.373779	8609.323242	1218.681641	1.021942
339.784912	1101.975464	8436.508789	1187.260742	1.162791
340.156616	1185.016357	8259.205078	1108.708496	-1.078680
340.528351	1115.441528	8308.581055	1198.482544	1.154447
340.900024	1180.527710	8281.648438	1110.952881	-0.979773
341.271637	1153.595459	8328.780273	1216.437256	0.875821
341.643219	1169.305908	8360.201172	1144.618164	-0.343319
342.014801	1151.351196	8869.667969	1122.174561	-0.378018
342.386322	1187.260742	8761.939453	1135.640747	-0.681481
342.757782	1142.373779	9015.550781	1124.418945	-0.228051
343.129272	1151.351196	8984.129883	1182.772095	0.401146
343.500671	1146.862427	9228.763672	1198.482544	0.638713
343.872040	1122.174561	9314.049805	1207.459839	1.041096
344.243378	1086.265015	9682.123047	1214.192993	1.488251
344.614655	1153.595459	9742.719727	1131.151978	-0.261301
344.985962	1097.486816	9785.362305	1182.772095	0.981659
345.357147	1205.215576	10083.861328	1232.147705	0.303336
345.728363	1185.016357	10357.671875	1164.817261	-0.220210
346.099518	1070.554565	10490.087891	1193.993774	1.310460
346.470642	1137.885010	10299.318359	1144.618164	0.073495
346.841705	1149.106812	10469.889648	1200.726807	0.553816
347.212708	1185.016357	10404.802734	1241.125122	0.608569
347.583740	1124.418945	10469.889648	1110.952881	-0.144092
347.954681	1202.971191	10258.919922	1198.482544	-0.049566
348.325623	1176.039063	9980.621094	1196.238159	0.229416
348.696533	1119.930298	10007.553711	1209.704224	1.010100
349.067383	1124.418945	9980.621094	1169.305908	0.506842
349.438232	1097.486816	9670.901367	1131.151978	0.392669
349.808960	1160.328613	9769.652344	1218.681641	0.677789
350.179749	1128.907715	9774.140625	1135.640747	0.077881
350.550446	1151.351196	9964.910156	1216.437256	0.738477
350.921112	1162.572876	9931.245117	1155.839844	-0.076785
351.291748	1128.907715	10023.263672	1187.260742	0.656068
351.662354	1182.772095	10018.775391	1196.238159	0.152400
352.032928	1207.459839	9913.291016	1169.305908	-0.438257
352.403412	1171.550293	9982.865234	1090.753784	-0.916963
352.773926	1185.016357	10005.308594	1205.215576	0.229009
353.144379	1119.930298	10216.277344	1158.084229	0.419442
353.514801	1099.731079	10108.548828	1178.283325	0.871948
353.885162	1191.749390	10130.992188	1229.903442	0.426815
354.255493	1182.772095	10350.938477	1173.794678	-0.097919
354.625824	1187.260742	10869.383789	1286.012085	1.019935
354.996063	1146.862427	10961.401367	1164.817261	0.182941
355.366302	1167.061646	11358.651367	1119.930298	-0.462453
355.736450	1223.170288	11109.528320	1189.505127	-0.340521
356.106598	1180.527710	11688.571289	1196.238159	0.149509
356.476746	1160.328613	11650.416992	1185.016357	0.235344
356.846771	1101.975464	12117.241211	1187.260742	0.774246
357.216858	1142.373779	12135.196289	1274.790405	1.204574
357.586823	1122.174561	12465.115234	1247.858154	1.108034
357.956818	1079.531982	12743.415039	1185.016357	0.904368
358.326721	1169.305908	13194.529297	1169.305908	0.000000
358.696625	1135.640747	13879.055664	1153.595459	0.140894
359.066498	1133.396362	14139.400391	1200.726807	0.517687
359.436279	1088.509399	14482.786133	1220.926025	0.988606
359.806091	1180.527710	14399.745117	1200.726807	0.152801
360.175812	1151.351196	14011.472656	1126.663330	-0.191972
360.545532	1117.685913	14065.336914	1216.437256	0.762697
360.915192	1160.328613	14415.455078	1180.527710	0.152387
361.284760	1140.129395	14570.315430	1117.685913	-0.167112
361.654388	1207.459839	15281.774414	1176.039063	-0.223249
362.023895	1198.482544	15587.005859	1196.238159	-0.015598
362.393463	1176.039063	16210.934570	1220.926025	0.298552
362.762909	1110.952881	17241.091797	1236.636475	0.779185
363.132355	1126.663330	17741.580078	1234.392090	0.648386
363.501770	1243.369507	17988.458984	1200.726807	-0.254658
363.871124	1243.369507	17420.638672	1198.482544	-0.277469
364.240479	1115.441528	16480.255859	1279.279053	1.066316
364.609711	1216.437256	15928.146484	1214.192993	-0.015255
364.979004	1196.238159	15631.892578	1198.482544	0.015548
365.348206	1162.572876	14965.320313	1198.482544	0.260163
365.717377	1144.618164	14428.920898	1155.839844	0.084473
366.086517	1092.998047	14217.952148	1218.681641	0.957593
366.455597	1155.839844	13564.846680	1238.880737	0.669199
366.824677	1092.998047	13192.285156	1151.351196	0.482286
367.193665	1124.418945	12970.094727	1178.283325	0.454718
367.562683	1117.685913	12581.822266	1250.102539	1.155051
367.931610	1090.753784	12503.269531	1247.858154	1.376597
368.300537	1193.993774	12485.314453	1171.550293	-0.198768
368.669434	1144.618164	12465.115234	1191.749390	0.416335
369.038239	1167.061646	12067.866211	1200.726807	0.308832
369.407074	1135.640747	12056.644531	1209.704224	0.678175
369.775787	1164.817261	11571.864258	1202.971191	0.366616
370.144501	1164.817261	11684.082031	1211.948608	0.448048
370.513184	1088.509399	11627.973633	1223.170288	1.277683
370.881836	1180.527710	11607.774414	1196.238159	0.150667
371.250458	1202.971191	11773.856445	1180.527710	-0.212314
371.618988	1106.464233	11535.955078	1196.238159	0.860770
371.987549	1218.681641	11841.186523	1227.659058	0.084513
372.356049	1162.572876	11901.784180	1162.572876	0.000000
372.724487	1196.238159	11868.119141	1180.527710	-0.147214
373.092896	1162.572876	12186.816406	1171.550293	0.081433
373.461273	1155.839844	12159.883789	1207.459839	0.469100
373.829620	1119.930298	11854.652344	1234.392090	1.066276
374.197906	1050.355469	12029.711914	1164.817261	1.042518
374.566193	1149.106812	12180.083008	1182.772095	0.305189
374.934418	1178.283325	12074.598633	1070.554565	-0.988671
375.302612	1084.020630	11937.693359	1162.572876	0.723739
375.670746	1119.930298	12328.209961	1151.351196	0.280336
376.038849	1115.441528	12496.536133	1146.862427	0.276080
376.406952	1142.373779	12628.953125	1160.328613	0.156311
376.774933	1052.599854	12566.111328	1169.305908	1.013644
377.142975	1106.464233	12979.071289	1200.726807	0.793950
377.510925	1185.016357	13374.077148	1288.256470	0.846990
377.878845	1173.794678	13753.372070	1234.392090	0.481713
378.246765	1108.708496	14067.581055	1162.572876	0.415656
378.614563	1128.907715	14435.654297	1241.125122	0.843312
378.982361	1117.685913	14866.569336	1155.839844	0.277506
379.350128	1149.106812	14509.717773	1176.039063	0.201579
379.717865	1110.952881	14449.120117	1167.061646	0.420663
380.085571	1110.952881	14042.893555	1216.437256	0.815689
380.453217	1108.708496	13811.725586	1247.858154	1.095406
380.820862	1137.885010	13668.086914	1223.170288	0.680638
381.188385	1122.174561	13632.177734	1250.102539	1.022606
381.555939	1117.685913	13425.697266	1205.215576	0.711160
381.923431	1171.550293	13470.583984	1202.971191	0.255475
382.290894	1092.998047	13205.750977	1243.369507	1.241431
382.658325	1238.880737	12869.098633	1185.016357	-0.463142
383.025696	1137.885010	12817.478516	1211.948608	0.634128
383.393066	1140.129395	12653.640625	1216.437256	0.662768
383.760345	1140.129395	12875.832031	1229.903442	0.764965
384.127625	1110.952881	12956.627930	1196.238159	0.719970
384.494843	1182.772095	13136.175781	1162.572876	-0.168983
384.862030	1149.106812	13409.986328	1202.971191	0.439319
385.229187	1160.328613	13751.127930	1216.437256	0.445632
385.596283	1142.373779	13609.733398	1171.550293	0.234023
385.963409	1191.749390	13591.779297	1198.482544	0.054299
386.330383	1160.328613	13457.118164	1220.926025	0.492791
386.697418	1128.907715	13843.146484	1252.346924	0.970874
387.064362	1169.305908	13923.942383	1182.772095	0.105579
387.431274	1149.106812	13959.852539	1182.772095	0.262789
387.798187	1108.708496	14090.024414	1193.993774	0.656985
388.165009	1151.351196	14332.414063	1169.305908	0.136216
388.531830	1119.930298	14532.161133	1211.948608	0.686078
388.898590	1092.998047	14271.816406	1236.636475	1.089919
389.265320	1106.464233	14220.197266	1182.772095	0.581893
389.631989	1068.310181	14451.365234	1254.591187	1.391917
389.998657	1146.862427	14471.563477	1256.835571	0.825333
390.365295	1066.065918	14024.938477	1196.238159	1.004503
390.731812	1126.663330	14529.916992	1193.993774	0.502344
391.098358	1144.618164	14568.071289	1205.215576	0.451429
391.464844	1124.418945	14534.405273	1167.061646	0.317992
391.831329	1124.418945	14785.772461	1189.505127	0.476426
392.197723	1169.305908	14893.501953	1126.663330	-0.310711
392.564087	1160.328613	15584.760742	1160.328613	0.000000
392.930450	1171.550293	16011.187500	1243.369507	0.483969
393.296722	1151.351196	16206.446289	1178.283325	0.178890
393.663025	1110.952881	16278.264648	1173.794678	0.414324
394.029236	1133.396362	16258.065430	1173.794678	0.267102
394.395416	1155.839844	16083.006836	1167.061646	0.075177
394.761536	1149.106812	16015.675781	1232.147705	0.558575
395.127625	1162.572876	16217.667969	1193.993774	0.208706
395.493744	1090.753784	16675.515625	1187.260742	0.619239
395.859741	1104.219849	16365.794922	1234.392090	0.852941
396.225769	1124.418945	16610.429688	1250.102539	0.811594
396.591675	1167.061646	16278.264648	1169.305908	0.014852
396.957581	1088.509399	15634.136719	1180.527710	0.632618
397.323486	1115.441528	15450.100586	1216.437256	0.704556
397.689301	1092.998047	15360.326172	1277.034668	1.289917
398.055115	1149.106812	15005.718750	1178.283325	0.210560
398.420807	1162.572876	15001.230469	1265.812988	0.746027
398.786560	1108.708496	15066.316406	1180.527710	0.514552
399.152222	1187.260742	14841.881836	1171.550293	-0.115056
399.517883	1164.817261	14415.455078	1223.170288	0.440379
399.883514	1124.418945	14514.207031	1180.527710	0.419041
400.248993	1092.998047	14543.382813	1256.835571	1.218088
400.614563	1155.839844	14671.310547	1243.369507	0.647626
400.980042	1169.305908	14446.875977	1216.437256	0.354970
401.345459	1160.328613	14370.568359	1196.238159	0.271831
401.710846	1151.351196	14446.875977	1207.459839	0.422011
402.076202	1155.839844	14534.405273	1160.328613	0.033552
402.441559	1113.197266	14583.781250	1167.061646	0.399867
402.806824	1196.238159	14718.442383	1160.328613	-0.265560
403.172089	1158.084229	14615.202148	1227.659058	0.517011
403.537262	1122.174561	14956.343750	1286.012085	1.184296
403.902435	1171.550293	14853.103516	1270.301636	0.721785
404.267578	1193.993774	15113.448242	1290.500854	0.693325
404.632660	1185.016357	15362.570313	1238.880737	0.379927
404.997742	1153.595459	15690.245117	1227.659058	0.509496
405.362671	1158.084229	16013.431641	1223.170288	0.438132
405.727692	1140.129395	16199.712891	1205.215576	0.432191
406.092621	1162.572876	16403.949219	1288.256470	0.824621
406.457489	1135.640747	16365.794922	1232.147705	0.633657
406.822357	1185.016357	16159.314453	1241.125122	0.374700
407.187134	1153.595459	16334.374023	1254.591187	0.665287
407.551941	1171.550293	16307.441406	1214.192993	0.281732
407.916656	1108.708496	16186.247070	1223.170288	0.759154
408.281342	1155.839844	16249.088867	1202.971191	0.312268
408.645996	1153.595459	16006.699219	1270.301636	0.785736
409.010620	1115.441528	16121.160156	1227.659058	0.747832
409.375214	1182.772095	15822.662109	1263.568604	0.551893
409.739685	1196.238159	15802.462891	1178.283325	-0.122926
410.104218	1122.174561	15771.041992	1173.794678	0.352383
410.468658	1200.726807	15679.023438	1279.279053	0.542552
410.833099	1126.663330	16006.699219	1160.328613	0.226245
411.197449	1167.061646	15961.811523	1218.681641	0.348908
411.561768	1113.197266	16641.849609	1169.305908	0.361323
411.926117	1135.640747	16769.777344	1259.079956	0.789549
412.290344	1155.839844	16540.853516	1241.125122	0.554340
412.654541	1128.907715	16758.556641	1200.726807	0.459505
413.018738	1191.749390	16581.251953	1290.500854	0.641681
413.382874	1140.129395	16498.210938	1245.613770	0.686833
413.746979	1149.106812	16208.690430	1265.812988	0.774963
414.110992	1128.907715	16044.852539	1274.790405	0.978032
414.475037	1119.930298	16233.377930	1202.971191	0.549450
414.838989	1126.663330	16368.039063	1247.858154	0.795170
415.202972	1106.464233	16664.292969	1234.392090	0.822273
415.566833	1178.283325	16605.939453	1270.301636	0.596450
415.930695	1182.772095	16859.550781	1274.790405	0.586972
416.294556	1164.817261	16706.935547	1225.414673	0.389892
416.658295	1144.618164	17236.601563	1162.572876	0.111576
417.022064	1122.174561	17454.304688	1259.079956	0.838258
417.385712	1167.061646	17833.599609	1220.926025	0.323189
417.749420	1214.192993	17966.015625	1209.704224	-0.026796
418.113037	1191.749390	18201.671875	1306.211304	0.672913
418.476593	1126.663330	18468.750000	1245.613770	0.685906
418.840149	1164.817261	19108.388672	1272.546021	0.600375
419.203644	1122.174561	19653.765625	1265.812988	0.775100
419.567108	1137.885010	20291.162109	1283.767822	0.761660
419.930511	1092.998047	21108.105469	1378.030396	1.424086
420.293915	1144.618164	21862.205078	1355.586914	1.018308
420.657257	1108.708496	22405.337891	1274.790405	0.779851
421.020508	1140.129395	23092.109375	1387.007813	1.124629
421.383820	1187.260742	24014.537109	1366.808716	0.786550
421.747009	1140.129395	24708.041016	1357.831299	0.923722
422.110168	1151.351196	25848.169922	1362.319946	0.854235
422.473328	1119.930298	26270.107422	1373.541748	1.008388
422.836426	1077.287598	26954.634766	1362.319946	1.101474
423.199493	1135.640747	27125.205078	1362.319946	0.872193
423.562469	1097.486816	27479.812500	1364.564331	1.012335
423.925476	1167.061646	26804.263672	1373.541748	0.805393
424.288391	1193.993774	26795.285156	1339.876465	0.569826
424.651306	1146.862427	27282.308594	1371.297363	0.858738
425.014160	1084.020630	27773.822266	1413.940063	1.236125
425.376984	1104.219849	28323.687500	1389.252197	1.047164
425.739777	1115.441528	28260.845703	1335.387817	0.810252
426.102478	1151.351196	28189.027344	1351.098267	0.738773
426.465210	1135.640747	27592.029297	1344.365234	0.788938
426.827820	1131.151978	27383.304688	1346.609497	0.820723
427.190460	1171.550293	26788.552734	1351.098267	0.700894
427.553040	1092.998047	26012.007813	1375.786133	1.134829
427.915558	1146.862427	25625.980469	1346.609497	0.815990
428.278076	1146.862427	25183.843750	1389.252197	1.008404
428.640503	1167.061646	24831.480469	1440.872192	1.157056
429.002960	1176.039063	23918.029297	1261.324219	0.375012
429.365326	1216.437256	23422.029297	1333.143433	0.525571
429.727631	1178.283325	23029.267578	1324.166016	0.667625
430.089935	1176.039063	22531.021484	1308.455566	0.620073
430.452179	1142.373779	21918.314453	1286.012085	0.691368
430.814392	1167.061646	21839.761719	1330.899048	0.792530
431.176544	1158.084229	21325.806641	1373.541748	1.068328
431.538696	1142.373779	20957.732422	1353.342651	1.064673
431.900787	1146.862427	20744.519531	1310.699951	0.836006
432.262817	1124.418945	20838.783203	1337.632202	1.081512
432.624847	1149.106812	20668.212891	1308.455566	0.816373
432.986786	1079.531982	20443.777344	1328.654785	1.286509
433.348755	1160.328613	20827.560547	1283.767822	0.627639
433.710602	1254.591187	20672.701172	1308.455566	0.277393
434.072449	1146.862427	20993.642578	1317.432983	0.859437
434.434265	1110.952881	21056.484375	1319.677368	1.046472
434.796051	1133.396362	21314.583984	1250.102539	0.578292
435.157745	1117.685913	21435.779297	1297.233887	0.883685
435.519409	1113.197266	21404.359375	1310.699951	0.973343
435.881104	1153.595459	21139.525391	1270.301636	0.583942
436.242645	1164.817261	21370.693359	1292.745117	0.633122
436.604248	1128.907715	21455.978516	1360.075684	1.137242
436.965759	1191.749390	21262.964844	1360.075684	0.838645
437.327240	1052.599854	21262.964844	1301.722534	1.232648
437.688690	1117.685913	21096.882813	1321.921753	1.022242
438.050079	1135.640747	21451.490234	1245.613770	0.541316
438.411438	1185.016357	21422.314453	1256.835571	0.354885
438.772736	1133.396362	21447.001953	1337.632202	1.005414
439.134033	1113.197266	21606.349609	1348.853882	1.149929
439.495270	1155.839844	22205.591797	1306.211304	0.714362
439.856445	1086.265015	22142.750000	1443.116577	1.694735
440.217651	1158.084229	22389.628906	1342.120850	0.866807
440.578705	1182.772095	22919.294922	1357.831299	0.805369
440.939789	1144.618164	23235.748047	1389.252197	1.107386
441.300812	1176.039063	23850.699219	1364.564331	0.831436
441.661804	1220.926025	24111.042969	1411.695679	0.833415
442.022797	1128.907715	24903.298828	1402.718262	1.151704
442.383636	1140.129395	25394.812500	1404.962646	1.091885
442.744537	1140.129395	25581.091797	1387.007813	1.010101
443.105347	1160.328613	25787.572266	1395.985229	0.956894
443.466125	1135.640747	25147.933594	1366.808716	0.962707
443.826843	1135.640747	24633.976563	1344.365234	0.888252
444.187592	1106.464233	24750.683594	1371.297363	1.120076
444.548248	1135.640747	23949.451172	1369.052979	1.023118
444.908844	1113.197266	24061.667969	1344.365234	1.007335
445.269470	1086.265015	24178.375000	1366.808716	1.214890
445.629944	1092.998047	24005.558594	1306.211304	0.930552
445.990479	1149.106812	24463.406250	1387.007813	1.020408
446.350891	1140.129395	24445.451172	1400.473877	1.117103
446.711334	1182.772095	25213.019531	1351.098267	0.700476
447.071747	1119.930298	25284.837891	1335.387817	0.891613
447.432037	1202.971191	25778.595703	1434.139160	0.940639
447.792358	1164.817261	26256.642578	1366.808716	0.805009
448.152588	1180.527710	26878.326172	1395.985229	0.838428
448.512787	1126.663330	26837.927734	1351.098267	0.872905
448.872986	1133.396362	26741.421875	1490.247925	1.393515
449.233063	1202.971191	27037.675781	1384.763428	0.703674
449.593201	1209.704224	25994.052734	1382.519165	0.697275
449.953217	1182.772095	26617.982422	1346.609497	0.644136
450.313232	1173.794678	25679.843750	1333.143433	0.650243
450.673157	1193.993774	25713.509766	1366.808716	0.704806
451.033112	1167.061646	25293.816406	1382.519165	0.893023
451.393005	1205.215576	24995.318359	1344.365234	0.584906
451.752808	1146.862427	24216.527344	1339.876465	0.836657
452.112610	1117.685913	23794.589844	1371.297363	1.118369
452.472351	1146.862427	23399.585938	1429.650513	1.270802
452.832092	1169.305908	23722.771484	1420.673096	1.114539
453.191711	1164.817261	23103.332031	1265.812988	0.460358
453.551392	1155.839844	23736.238281	1360.075684	0.904483
453.910980	1155.839844	23379.386719	1312.944336	0.706928
454.270508	1099.731079	23462.427734	1375.786133	1.234444
454.630035	1189.505127	22811.566406	1380.274780	0.882292
454.989441	1220.926025	22724.035156	1438.627808	1.012420
455.348907	1122.174561	22196.613281	1389.252197	1.267306
455.708252	1209.704224	22057.464844	1364.564331	0.742814
456.067627	1164.817261	21505.353516	1330.899048	0.816506
456.426941	1169.305908	21442.511719	1308.455566	0.686372
456.786163	1176.039063	21065.462891	1362.319946	0.936583
457.145416	1104.219849	20874.691406	1387.007813	1.430355
457.504517	1135.640747	20677.189453	1353.342651	1.114046
457.863678	1171.550293	21083.416016	1393.740845	1.115870
458.222809	1135.640747	20912.845703	1375.786133	1.214253
458.581818	1131.151978	21179.923828	1425.161743	1.466473
458.940857	1110.952881	21206.855469	1299.478271	0.938129
459.299774	1162.572876	21648.992188	1355.586914	0.942156
459.658722	1160.328613	22082.152344	1380.274780	1.051276
460.017548	1198.482544	23170.662109	1422.917358	1.021450
460.376434	1095.242432	23830.500000	1324.166016	1.006910
460.735260	1160.328613	25067.136719	1375.786133	0.901239
461.093964	1189.505127	26083.826172	1429.650513	0.964659
461.452728	1079.531982	26577.583984	1445.360962	1.434733
461.811340	1171.550293	27324.951172	1496.980957	1.244315
462.170013	1144.618164	26447.412109	1456.582642	1.232925
462.528564	1133.396362	25810.015625	1312.944336	0.727604
462.887115	1176.039063	24979.607422	1416.184326	1.008862
463.245667	1144.618164	24066.156250	1490.247925	1.507882
463.604095	1153.595459	23960.671875	1452.093994	1.308798
463.962555	1122.174561	23532.001953	1348.853882	1.011517
464.320862	1084.020630	22715.058594	1306.211304	1.027185
464.679230	1211.948608	22293.121094	1429.650513	1.032684
465.037506	1088.509399	21797.119141	1348.853882	1.257180
465.395782	1146.862427	21660.214844	1274.790405	0.623633
465.754028	1236.636475	21220.322266	1387.007813	0.752470
466.112152	1137.885010	20962.222656	1317.432983	0.905695
466.470306	1176.039063	20757.986328	1420.673096	1.249283
466.828339	1117.685913	20634.546875	1328.654785	1.080957
467.186432	1151.351196	20843.271484	1324.166016	0.877593
467.544434	1158.084229	20434.800781	1348.853882	0.989638
467.902374	1189.505127	20706.365234	1337.632202	0.758970
468.260315	1124.418945	21377.425781	1326.410400	0.997341
468.618134	1142.373779	21148.501953	1335.387817	0.964775
468.976013	1122.174561	21043.017578	1366.808716	1.228031
469.333771	1173.794678	21179.923828	1395.985229	1.110612
469.691559	1084.020630	20394.402344	1400.473877	1.638773
470.049255	1173.794678	20129.568359	1353.342651	0.947194
470.406891	1124.418945	19970.218750	1335.387817	1.119448
470.764526	1164.817261	19615.613281	1297.233887	0.717674
471.122101	1189.505127	19550.525391	1371.297363	0.990099
471.479645	1133.396362	19301.404297	1348.853882	1.185917
471.837097	1250.102539	19292.425781	1328.654785	0.435378
472.194611	1205.215576	19171.230469	1288.256470	0.462211
472.552032	1211.948608	18881.710938	1310.699951	0.558872
472.909363	1214.192993	19029.837891	1306.211304	0.516503
473.266693	1202.971191	18946.796875	1286.012085	0.467999
473.623962	1122.174561	18843.556641	1245.613770	0.696555
473.981201	1182.772095	19397.910156	1346.609497	0.899457
474.338379	1119.930298	19680.699219	1315.188599	1.051995
474.695557	1158.084229	19471.974609	1369.052979	1.151960
475.052704	1193.993774	19597.658203	1360.075684	0.902439
475.409729	1223.170288	19808.626953	1355.586914	0.712474
475.766815	1144.618164	19779.449219	1413.940063	1.445261
476.123749	1142.373779	19285.693359	1344.365234	1.113310
476.480713	1209.704224	19739.050781	1315.188599	0.569283
476.837646	1137.885010	19687.431641	1398.229614	1.403509
477.194458	1063.821533	19772.716797	1362.319946	1.595489
477.551300	1160.328613	20354.003906	1366.808716	1.075772
477.908051	1153.595459	20524.574219	1425.161743	1.401923
478.264801	1149.106812	20255.251953	1315.188599	0.869259
478.621460	1146.862427	21179.923828	1378.030396	1.153932
478.978149	1178.283325	21168.701172	1416.184326	1.190075
479.334747	1214.192993	21462.710938	1375.786133	0.798049
479.691315	1095.242432	21451.490234	1407.207031	1.532525
480.047821	1191.749390	21550.242188	1326.410400	0.661449
480.404297	1171.550293	22391.873047	1355.586914	0.867266
480.760742	1160.328613	23330.009766	1335.387817	0.789633
481.117096	1104.219849	23040.490234	1384.763428	1.278903
481.473450	1158.084229	23325.521484	1360.075684	0.911208
481.829803	1142.373779	24461.162109	1398.229614	1.097209
482.186005	1117.685913	25118.755859	1355.586914	0.991210
482.542267	1164.817261	26714.488281	1380.274780	0.843289
482.898407	1990.737793	28310.220703	2251.082275	0.989170
483.254578	1238.880737	29385.263672	1501.469604	0.932940
483.610626	1155.839844	32502.666016	1492.492188	1.073960
483.966705	1144.618164	35696.375000	1456.582642	0.902890
484.322723	1158.084229	40241.183594	1559.822754	1.027909
484.678680	1220.926025	44406.695313	1557.578369	0.779545
485.034607	1072.798950	49333.039063	1640.619263	1.176580
485.390472	1079.531982	52576.125000	1683.261963	1.172369
485.746307	1140.129395	54569.109375	1676.528931	1.003949
486.102142	1137.885010	53900.292969	1663.062744	0.995363
486.457855	1185.016357	52430.242188	1663.062744	0.932860
486.813599	1164.817261	49229.800781	1573.288818	0.849832
487.169220	1090.753784	49113.093750	1701.216675	1.271206
487.524872	1185.016357	47815.859375	1642.863647	0.981855
487.880402	1160.328613	48161.492188	1642.863647	1.026645
488.235931	1097.486816	49144.515625	1685.506226	1.223841
488.591461	1146.862427	49979.414063	1674.284546	1.080063
488.946869	1185.016357	50843.488281	1757.325439	1.152490
489.302307	1081.776367	50547.234375	1716.927124	1.284029
489.657623	1187.260742	50632.519531	1705.705444	1.048523
490.013000	1162.572876	48935.789063	1658.574097	1.038241
490.368225	1135.640747	47384.945313	1580.021851	0.960838
490.723511	1158.084229	45854.300781	1651.841064	1.104695
491.078705	1144.618164	44141.859375	1642.863647	1.158785
491.433838	1173.794678	44022.910156	1656.329712	1.126126
491.788940	1115.441528	43648.105469	1559.822754	1.044800
492.143982	1162.572876	44096.972656	1604.709717	1.029796
492.499023	1158.084229	45342.585938	1602.465332	1.005740
492.853973	1155.839844	47804.640625	1615.931396	0.986288
493.208923	1164.817261	48307.375000	1660.818481	1.052130
493.563843	1211.948608	48197.398438	1571.044434	0.764270
493.918640	1135.640747	46307.656250	1582.266235	0.988722
494.273468	1277.034668	44359.562500	1636.130615	0.833507
494.628204	1227.659058	41390.289063	1618.175781	0.972339
494.982910	1449.849609	39799.046875	1840.366333	1.018318
495.337585	1140.129395	37556.941406	1573.288818	1.189449
495.692230	1158.084229	36511.074219	1512.691406	1.003047
496.046844	1218.681641	35027.558594	1521.668823	0.896176
496.401337	1162.572876	34637.042969	1604.709717	1.320818
496.755890	1135.640747	33667.484375	1588.999268	1.393584
497.110291	1160.328613	33041.308594	1447.605225	0.901091
497.464752	1142.373779	32978.468750	1562.067017	1.318294
497.819122	1135.640747	33131.082031	1564.311401	1.339787
498.173401	1196.238159	32994.179688	1537.379272	1.072840
498.527740	1167.061646	33570.976563	1557.578369	1.205153
498.881927	1185.016357	33824.585938	1622.664551	1.340852
499.236145	1155.839844	33207.390625	1537.379272	1.190393
499.590271	1162.572876	32884.207031	1627.153198	1.464553
499.944427	1117.685913	32412.892578	1449.849609	1.061388
500.298492	1171.550293	32457.779297	1530.646240	1.147776
500.652496	1149.106812	32141.326172	1496.980957	1.122456
501.006500	1214.192993	31364.781250	1555.333984	1.131457
501.360382	1171.550293	30612.923828	1461.071411	0.983382
501.714294	1133.396362	30801.449219	1528.401855	1.331417
502.068115	1153.595459	30303.203125	1559.822754	1.393594
502.421967	1167.061646	29896.976563	1541.867920	1.304585
502.775726	1169.305908	29948.595703	1521.668823	1.224363
503.129425	1164.817261	29506.458984	1503.713989	1.195755
503.483124	1149.106812	29526.658203	1615.931396	1.645049
503.836700	1176.039063	29313.445313	1593.487915	1.483608
504.190338	1160.328613	29340.376953	1588.999268	1.521185
504.543823	1119.930298	29232.648438	1622.664551	1.788280
504.897369	1144.618164	29324.667969	1629.397583	1.720293
505.250824	1209.704224	29775.781250	1716.927124	1.775613
505.604218	1169.305908	29791.492188	1573.288818	1.411433
505.957611	1176.039063	29712.939453	1562.067017	1.352733
506.310883	1162.572876	29802.712891	1676.528931	1.794531
506.664215	1180.527710	29589.500000	1618.175781	1.540528
507.017456	1146.862427	29681.519531	1573.288818	1.494416
507.370636	1196.238159	29598.478516	1658.574097	1.627815
507.723785	1146.862427	29194.494141	1795.479370	2.312555
508.076843	1155.839844	29755.582031	1651.841064	1.734286
508.429962	1061.577148	29885.753906	1654.085449	2.055595
508.782928	1176.039063	29582.767578	1582.266235	1.430039
509.135925	1185.016357	29317.933594	1719.171509	1.898684
509.488892	1160.328613	30143.855469	1833.633301	2.323060
509.841705	1135.640747	30339.113281	1824.655884	2.359360
510.194611	1137.885010	30770.027344	1750.592407	2.067712
510.547394	1155.839844	30992.218750	1847.099365	2.316834
510.900146	1158.084229	30983.242188	1838.122070	2.280081
511.252838	1144.618164	31360.291016	1900.963867	2.503157
511.605530	1193.993774	31539.839844	1986.249023	2.610754
511.958130	1151.351196	31613.904297	1916.674194	2.512340
512.310730	1036.889404	32228.855469	2006.448242	3.108361
512.663269	1135.640747	32412.892578	2111.932617	3.121412
513.015747	1108.708496	32697.923828	2116.421387	3.190054
513.368164	1131.151978	32513.886719	2093.977783	3.068011
513.720520	1173.794678	32778.718750	2053.579590	2.783696
514.072937	1149.106812	32345.560547	2109.688232	3.079137
514.425232	1113.197266	32688.947266	2129.887451	3.219845
514.777527	1176.039063	32733.833984	2145.597900	3.072328
515.129761	1142.373779	32567.751953	2132.131836	3.149550
515.481934	1207.459839	31916.890625	2199.462158	3.230285
515.834045	1205.215576	31955.044922	2118.665771	2.970586
516.186218	1128.907715	31461.287109	2203.950928	3.544210
516.538208	1162.572876	31470.265625	2260.059570	3.621149
516.890259	1095.242432	31461.287109	2237.616211	3.762010
517.242188	1133.396362	31672.255859	2262.303955	3.696627
517.594116	1160.328613	32109.904297	2334.123291	3.792603
517.945923	1131.151978	32206.412109	2403.697998	4.095046
518.297791	1173.794678	32711.390625	2417.164063	3.942499
518.649597	1189.505127	33842.542969	2497.960693	4.007148
519.001282	1142.373779	34681.929688	2500.205078	4.048448
519.352966	1173.794678	35777.171875	2592.223389	4.099104
519.704651	1101.975464	36477.410156	2702.196533	4.523538
520.056274	1180.527710	37330.261719	2812.169678	4.513566
520.407776	1149.106812	37056.449219	2839.101807	4.706544
520.759338	1149.106812	37345.972656	2843.590576	4.681300
521.110840	1200.726807	36313.570313	2823.391357	4.621285
521.462219	1162.572876	35875.921875	2951.319336	5.152907
521.813660	1158.084229	34796.390625	2807.680908	4.903924
522.164978	1180.527710	34612.355469	2821.146973	4.907357
522.516296	1155.839844	34343.031250	2798.703613	4.950294
522.867493	1126.663330	33824.585938	2917.654053	5.477384
523.218689	1124.418945	33281.453125	2915.409668	5.569514
523.569946	1182.772095	33036.820313	2791.970459	5.051786
523.920959	1169.305908	33303.898438	3002.939209	5.706104
524.272034	1202.971191	32693.435547	2964.785400	5.594755
524.623047	1209.704224	33164.750000	2890.721924	5.260571
524.974060	1142.373779	33276.964844	3063.536621	5.978488
525.325073	1160.328613	33788.679688	3059.048096	5.819232
525.675903	1140.129395	34511.359375	3236.351563	6.281525
526.026794	1137.885010	35543.757813	3317.148193	6.333986
526.377563	1211.948608	36663.687500	3323.881348	5.957205
526.728333	1155.839844	38495.078125	3373.256836	5.938570
527.079041	1160.328613	39861.886719	3498.940430	6.042681
527.429749	1092.998047	41208.496094	3682.977051	6.456305
527.780396	1106.464233	42532.664063	3842.325928	6.604183
528.130920	1155.839844	44105.953125	3862.525146	6.301928
528.481506	1135.640747	45203.437500	4030.851318	6.569901
528.831909	1176.039063	47187.441406	4354.037598	6.906981
529.182373	1144.618164	49988.390625	4571.739258	7.016495
529.532776	1158.084229	52780.359375	4888.192871	7.225774
529.883179	1137.885010	54912.492188	5238.311035	7.625208
530.233521	1099.731079	56550.867188	5487.434082	7.912738
530.583740	1117.685913	56761.835938	5521.099121	7.913524
530.934021	1205.215576	56036.910156	5550.275879	7.924359
531.284119	1144.618164	54250.410156	5334.818359	7.890288
531.634338	1140.129395	52077.878906	5056.519043	7.688580
531.984375	1160.328613	50345.242188	4690.689941	7.177732
532.334412	1088.509399	48740.531250	4789.441406	7.766579
532.684448	1108.708496	47039.316406	4571.739258	7.539701
533.034363	1072.798950	46453.539063	4479.721191	7.507420
533.384277	1149.106812	45807.167969	4643.558594	7.824906
533.734131	1196.238159	45683.730469	4630.092285	7.718695
534.083984	1198.482544	46325.613281	4508.897461	7.335754
534.433777	1180.527710	46803.660156	4704.156250	7.723337
534.783447	1191.749390	47344.546875	4553.784668	7.284575
535.133179	1164.817261	47977.453125	4731.088379	7.618180
535.482788	1162.572876	46682.464844	4540.318359	7.420373
535.832397	1234.392090	45129.375000	4468.499512	7.367829
536.181946	1158.084229	43253.097656	4295.684570	7.453616
536.531433	1135.640747	41774.074219	4288.951172	7.759429
536.880920	1207.459839	41132.187500	4187.955566	7.465288
537.230286	1137.885010	40737.183594	4226.109863	7.798686
537.579712	1146.862427	40431.953125	4239.575684	7.872487
537.929016	1124.418945	41044.660156	4138.580078	7.550458
538.278320	1135.640747	40887.554688	4306.906250	7.977643
538.627502	1171.550293	40391.554688	4156.534668	7.610872
538.976746	1176.039063	39094.320313	4071.249512	7.635395
539.325867	1155.839844	37595.093750	4003.918945	7.815964
539.674988	1110.952881	36134.023438	3974.742432	8.176867
540.023987	1135.640747	35474.183594	3889.457275	8.019608
540.372986	1113.197266	35115.089844	3934.344238	8.297029
540.721985	1151.351196	35148.753906	3745.818848	7.631371
541.070862	1106.464233	36416.812500	3804.171875	7.639991
541.419800	1169.305908	37541.230469	3947.810303	7.639146
541.768616	1205.215576	39556.656250	4062.272217	7.449672
542.117371	1144.618164	41711.230469	4333.838379	7.861687
542.466125	1108.708496	43850.093750	4347.304688	7.577190
542.814758	1218.681641	45679.238281	4526.852539	7.440687
543.163513	1169.305908	47030.339844	4701.911621	7.702848
543.512024	1057.088501	47021.359375	4778.219727	8.095704
543.860596	1128.907715	45380.742188	4654.780273	7.967743
544.209167	1176.039063	43930.890625	4558.273438	7.910761
544.557556	1126.663330	43264.320313	4356.281738	7.664447
544.906006	1180.527710	41935.664063	4293.439941	7.638085
545.254333	1191.749390	40566.613281	4219.376465	7.689238
545.602722	1151.351196	39707.027344	4149.801758	7.776937
545.951050	1169.305908	37702.824219	4066.760742	7.930949
546.299194	1097.486816	35983.652344	4077.982666	8.543489
546.647400	1158.084229	35388.898438	3851.303223	7.867821
546.995544	1108.708496	34394.652344	3714.397949	7.828197
547.343628	1178.283325	33622.597656	3766.018066	7.975927
547.691711	1193.993774	33824.585938	3734.597168	7.785956
548.039734	1061.577148	32745.054688	3640.334473	8.139124
548.387756	1113.197266	32760.765625	3523.628418	7.616481
548.735596	1117.685913	31955.044922	3635.845703	8.165938
549.083496	1101.975464	31524.128906	3498.940430	7.879011
549.431335	1117.685913	30482.751953	3391.211670	7.742281
549.779114	1110.952881	29374.042969	3411.410889	8.139442
550.126770	1142.373779	28465.082031	3330.614258	8.008871
550.474487	1126.663330	27535.919922	3209.419434	7.886463
550.822205	1173.794678	27024.208984	3263.283691	8.083000
551.169739	1153.595459	25978.341797	3153.310791	8.055330
551.517334	1131.151978	25296.060547	3177.998535	8.470326
551.864746	1142.373779	24840.457031	3047.826172	8.040534
552.212280	1122.174561	24400.564453	3014.161133	8.127652
552.559631	1146.862427	24063.912109	3061.292480	8.353737
552.907043	1140.129395	24234.482422	3000.694824	8.056365
553.254395	1072.798950	24288.347656	3081.491455	8.652358
553.601624	1151.351196	24133.488281	3025.382813	8.154297
553.948914	1126.663330	24427.498047	2955.807861	7.850125
554.296082	1176.039063	23940.472656	2967.029785	7.867495
554.643188	1066.065918	24001.070313	3014.161133	8.493982
554.990356	1151.351196	24162.664063	2978.251465	7.939140
555.337341	1151.351196	23969.650391	2955.807861	7.907937
555.684387	1041.378052	23493.847656	2960.296631	8.546581
556.031311	1232.147705	22995.601563	2960.296631	7.940601
556.378235	1182.772095	22943.982422	2875.011475	7.776402
556.725098	1126.663330	22513.066406	2888.477539	8.238011
557.071960	1229.903442	22479.402344	2785.237305	7.319391
557.418701	1205.215576	21909.337891	2798.703613	7.696477
557.765381	1227.659058	21756.720703	2845.834717	7.882365
558.112122	1119.930298	21891.382813	2794.214844	8.060508
558.458679	1200.726807	21458.222656	2717.906982	7.489475
558.805359	1173.794678	21047.507813	2684.241699	7.600225
559.151855	1151.351196	20793.896484	2774.015625	8.260968
559.498413	1158.084229	21146.257813	2646.087646	7.444419
559.844849	1072.798950	20540.285156	2652.820801	8.116209
560.191162	1146.862427	20623.324219	2749.327881	8.227703
560.537537	1128.907715	20722.076172	2708.929443	8.064146
560.883850	1146.862427	20818.583984	2693.218994	7.860810
561.230164	1115.441528	20376.447266	2713.418213	8.296434
561.576355	1189.505127	20434.800781	2688.730469	7.790088
561.922546	1113.197266	20793.896484	2634.865967	7.731781
562.268677	1142.373779	20621.080078	2693.218994	7.961746
562.614746	1160.328613	20672.701172	2738.105957	8.086035
562.960815	1189.505127	20722.076172	2749.327881	7.985753
563.306763	1144.618164	20531.306641	2679.752930	7.918499
563.652710	1101.975464	20576.193359	2639.354736	7.894433
563.998657	1205.215576	20486.419922	2722.395508	7.868699
564.344482	1153.595459	20329.314453	2632.621582	7.713015
564.690308	1126.663330	20084.681641	2585.490234	7.695039
565.036011	1164.817261	20230.564453	2598.956543	7.522072
565.381714	1124.418945	20261.984375	2603.445068	7.728392
565.727356	1081.776367	20167.722656	2673.020020	8.337254
566.072998	1153.595459	20499.886719	2623.644287	7.598608
566.418640	1133.396362	20762.474609	2655.065186	7.752116
566.764099	1176.039063	21092.394531	2749.327881	7.899481
567.109558	1099.731079	21413.335938	2704.440918	7.899680
567.454956	1131.151978	21794.875000	2800.947754	8.080808
567.800415	1185.016357	21693.878906	2796.459229	7.857300
568.145691	3516.895264	24573.378906	5173.225098	7.866127
568.491028	1272.546021	21563.707031	2818.902588	7.620839
568.836304	1153.595459	21669.191406	2711.173828	7.592167
569.181458	1124.418945	21381.916016	2659.553955	7.578108
569.526672	1146.862427	21684.902344	2655.065186	7.343461
569.871704	1155.839844	20897.136719	2623.644287	7.435198
570.216797	1223.170288	20921.824219	2639.354736	7.189245
570.561829	1142.373779	21108.105469	2753.816406	8.071042
570.906799	1137.885010	20760.230469	2630.377197	7.606084
571.251709	1079.531982	20858.982422	2693.218994	8.158401
571.596619	1110.952881	20755.742188	2567.535645	7.414601
571.941406	1131.151978	21020.574219	2643.843506	7.605508
572.286133	1133.396362	21253.988281	2621.399902	7.395426
572.630920	1128.907715	21595.128906	2592.223389	7.149907
572.975647	1086.265015	21455.978516	2574.268555	7.304980
573.320251	1167.061646	21978.912109	2623.644287	6.998814
573.664917	1144.618164	21862.205078	2661.798096	7.323150
574.009399	1178.283325	21792.630859	2482.250244	6.325531
574.353882	1126.663330	21983.400391	2576.512939	6.951469
574.698364	1101.975464	21379.669922	2587.734619	7.327061
575.042786	1162.572876	21543.507813	2585.490234	6.981610
575.387146	1178.283325	21280.919922	2536.114746	6.754494
575.731445	1153.595459	21363.960938	2598.956543	7.151583
576.075684	1218.681641	21034.041016	2614.666748	7.044965
576.419861	1176.039063	21132.792969	2540.603271	6.837606
576.764099	1243.369507	21040.773438	2500.205078	6.348487
577.108215	1227.659058	21058.728516	2396.965088	5.896333
577.452332	1185.016357	20232.808594	2426.141602	6.515848
577.796387	1104.219849	20068.970703	2464.295410	7.171597
578.140320	1167.061646	19833.314453	2515.915527	7.226163
578.484253	1178.283325	19548.281250	2376.765869	6.524130
578.828125	1137.885010	18919.863281	2379.010254	6.979680
579.171997	1153.595459	18655.031250	2293.724854	6.514491
579.515747	1187.260742	18363.265625	2309.435303	6.533386
579.859558	1169.305908	18304.912109	2275.770020	6.457106
580.203247	1214.192993	17739.335938	2194.973633	5.935081
580.546875	1185.016357	17265.779297	2271.281494	6.755060
580.890564	1090.753784	17263.535156	2188.240479	6.786011
581.234070	1113.197266	16745.089844	2239.860596	7.207466
581.577576	1108.708496	16680.003906	2230.883057	7.206687
581.921143	1158.084229	16760.800781	2179.263184	6.544879
582.264465	1185.016357	16585.740234	2192.729248	6.543283
582.607849	1185.016357	16305.197266	2096.222168	6.026422
582.951172	1176.039063	16163.803711	2154.575195	6.528900
583.294495	1099.731079	16123.405273	2100.710938	6.662683
583.637634	1099.731079	15907.947266	2111.932617	6.835405
583.980835	1135.640747	15791.241211	2093.977783	6.539050
584.324036	1092.998047	15836.127930	2170.285645	7.307048
584.667114	1164.817261	15589.250000	2145.597900	6.799440
585.010193	1162.572876	15492.743164	2091.733398	6.483946
585.353149	1196.238159	15620.670898	2069.290039	6.052591
585.696106	1146.862427	15079.782227	2233.127441	7.796391
586.038940	1180.527710	15149.357422	2093.977783	6.539202
586.381836	1167.061646	15169.556641	2055.823975	6.347171
586.724670	1158.084229	15082.027344	2085.000488	6.656995
587.067383	1101.975464	15241.375977	2015.425659	6.460318
587.410156	1075.043335	14942.876953	2069.290039	7.169445
587.752747	1176.039063	15028.162109	2060.312500	6.383667
588.095398	1137.885010	15061.828125	2010.936890	6.270148
588.437988	1158.084229	15046.117188	2035.624756	6.318681
588.780518	1178.283325	14929.411133	2010.936890	6.055166
589.122986	1182.772095	15039.383789	2069.290039	6.397798
589.465393	1164.817261	15248.108398	2069.290039	6.422311
589.807800	1155.839844	15012.452148	2013.181274	6.187237
590.150085	1144.618164	15129.158203	2109.688232	6.900978
590.492432	1171.550293	15411.946289	2102.955322	6.540584
590.834656	1180.527710	15254.841797	2046.846558	6.155318
591.176819	1155.839844	15582.516602	2013.181274	5.942750
591.518982	1171.550293	15459.077148	2017.669922	5.922086
591.861084	1133.396362	15454.588867	1977.271729	5.892494
592.203125	1182.772095	15153.845703	2062.556885	6.297188
592.545105	1176.039063	15252.597656	2037.869141	6.122449
592.887085	1119.930298	15261.575195	2024.403076	6.395811
593.229004	1097.486816	14866.569336	2078.267334	7.123064
593.570862	1182.772095	14940.632813	1968.294312	5.709625
593.912720	1176.039063	14581.537109	1972.782959	5.943411
594.254456	1193.993774	14639.889648	1995.226440	5.958939
594.596130	1171.550293	14725.175781	2026.647339	6.308991
594.937744	1115.441528	14985.519531	2019.914307	6.521036
595.279419	1218.681641	15106.714844	2022.158691	5.785391
595.621033	1151.351196	15108.958984	1968.294312	5.853031
595.962463	1101.975464	14967.565430	2037.869141	6.749757
596.304016	1092.998047	15218.932617	2089.489258	7.054338
596.645386	1164.817261	15575.784180	2076.022949	6.323002
596.986816	1131.151978	15364.814453	2071.534424	6.606750
597.328125	1193.993774	15753.086914	2062.556885	5.965778
597.669434	1207.459839	16536.365234	2085.000488	5.724744
598.010681	1223.170288	16534.121094	2022.158691	5.218411
598.351807	1207.459839	16796.708984	2111.932617	5.801901
598.693054	1252.346924	16823.642578	2111.932617	5.520322
599.034119	1146.862427	16915.660156	2125.398682	6.205522
599.375122	1178.283325	16394.970703	2147.842285	6.371682
599.716064	1142.373779	15580.272461	2019.914307	6.078035
600.057068	1151.351196	15602.715820	2042.357788	6.165554
600.398010	1164.817261	15075.293945	2004.203857	6.034204
600.738831	1142.373779	14731.908203	2044.602173	6.639142
601.079651	1173.794678	14635.401367	2033.380371	6.385461
601.420410	1059.332886	14137.156250	2024.403076	7.379440
601.761108	1086.265015	14253.862305	1968.294312	6.698483
602.101868	1187.260742	13892.521484	2013.181274	6.500618
602.442444	1207.459839	13957.608398	1959.316895	5.896850
602.782959	1142.373779	13840.901367	1984.004761	6.627784
603.123474	1144.618164	13973.318359	1954.828247	6.315606
603.463989	1104.219849	13804.992188	1930.140381	6.502916
603.804382	1180.527710	13908.232422	2055.823975	6.877094
604.144714	1113.197266	14426.676758	1963.805542	6.389076
604.485107	1180.527710	14740.885742	1972.782959	5.842436
604.825378	1106.464233	15077.538086	2058.068359	6.811245
605.165649	1115.441528	15380.525391	2017.669922	6.324732
605.505737	1084.020630	15546.607422	2022.158691	6.486655
605.845886	1158.084229	15977.522461	2096.222168	6.330455
606.185974	1104.219849	16287.242188	2026.647339	6.075388
606.526062	1119.930298	16083.006836	2087.244873	6.464677
606.866028	1153.595459	16278.264648	2125.398682	6.425286
607.205994	1133.396362	15977.522461	2085.000488	6.410645
607.545898	1160.328613	15108.958984	2019.914307	6.162509
607.885681	1101.975464	15266.063477	2022.158691	6.496593
608.225525	1171.550293	14918.189453	1930.140381	5.518368
608.565247	1068.310181	14541.138672	1909.941162	6.246877
608.904968	1131.151978	14184.287109	1921.162964	6.052270
609.244629	1122.174561	14112.467773	1907.696899	6.046995
609.584229	1084.020630	14033.916016	1880.764648	6.152513
609.923767	1146.862427	14125.934570	1941.362061	6.121390
610.263245	1189.505127	14350.369141	1916.674194	5.525238
610.602722	1135.640747	14433.410156	1898.719482	5.738397
610.942200	1167.061646	14599.492188	1945.850830	5.797828
611.281494	1214.192993	14612.958008	1961.561279	5.577889
611.620789	1164.817261	14610.713867	1903.208130	5.491570
611.960022	1178.283325	14173.065430	1941.362061	5.872193
612.299316	1117.685913	13796.014648	1840.366333	5.700123
612.638428	1142.373779	13591.779297	1820.167236	5.444384
612.977539	1117.685913	13300.013672	1788.746338	5.508474
613.316650	1162.572876	13140.665039	1764.058472	5.021548
613.655701	1178.283325	12586.310547	1795.479370	5.410191
613.994690	1151.351196	12577.333008	1752.836792	5.264192
614.333557	1189.505127	12242.924805	1817.922852	5.685279
614.672424	1180.527710	12195.793945	1804.456787	5.664221
615.011230	1171.550293	12081.332031	1678.773193	4.649249
615.350037	1158.084229	11800.788086	1710.194092	5.187684
615.688782	1202.971191	11861.385742	1739.370605	5.032638
616.027405	1180.527710	11488.824219	1707.949829	5.116482
616.366150	1191.749390	11625.729492	1667.551514	4.560121
616.704651	1169.305908	11390.072266	1649.596680	4.699166
617.043213	1099.731079	11286.832031	1640.619263	5.309540
617.381653	1189.505127	11179.103516	1705.705444	5.167378
617.720154	1173.794678	11082.596680	1618.175781	4.484711
618.058594	1178.283325	10983.844727	1606.954102	4.371711
618.396851	1202.971191	11264.388672	1654.085449	4.483605
618.735168	1214.192993	11051.175781	1631.641846	4.243668
619.073425	1259.079956	11046.686523	1609.198364	3.577161
619.411621	1146.862427	11201.546875	1591.243652	4.419643
619.749756	1178.283325	11210.524414	1631.641846	4.519015
620.087830	1202.971191	11259.900391	1660.818481	4.552556
620.425903	1146.862427	11021.999023	1685.506226	5.454545
620.763916	1128.907715	11143.194336	1683.261963	5.535634
621.101868	1189.505127	10806.541992	1669.795776	4.994164
621.439697	1099.731079	10855.916992	1636.130615	5.498045
621.777588	1171.550293	10844.695313	1624.908813	4.686775
622.115417	1173.794678	10669.636719	1638.375000	4.892461
622.453125	1144.618164	10649.437500	1669.795776	5.525383
622.790894	1108.708496	10723.500977	1532.890503	4.411764
623.128540	1124.418945	10613.527344	1649.596680	5.534532
623.466125	1234.392090	10478.866211	1521.668823	3.107551
623.803650	1108.708496	10539.463867	1564.311401	4.831033
624.141174	1193.993774	10472.133789	1595.732300	4.329947
624.478699	1137.885010	10315.029297	1678.773193	5.893861
624.816101	1214.192993	10301.563477	1523.913086	3.408248
625.153442	1128.907715	10341.960938	1559.822754	4.677223
625.490723	1137.885010	10247.698242	1514.935791	4.138952
625.828064	1173.794678	10400.314453	1555.333984	4.135246
626.165222	1176.039063	10436.223633	1582.266235	4.386815
626.502380	1169.305908	10359.916016	1557.578369	4.224665
626.839539	1155.839844	10849.184570	1575.533203	4.329706
627.176575	1158.084229	10734.722656	1521.668823	3.796578
627.513672	1198.482544	10970.378906	1573.288818	3.835553
627.850525	1113.197266	11062.397461	1636.130615	5.256034
628.187500	1169.305908	11271.122070	1586.754883	4.132415
628.524414	1128.907715	11223.990234	1611.442749	4.779902
628.861206	1200.726807	11262.144531	1645.108032	4.416686
629.197998	1149.106812	11194.814453	1586.754883	4.356568
629.534668	1122.174561	10963.646484	1633.886230	5.199544
629.871399	1119.930298	10703.301758	1559.822754	4.590164
630.208008	1155.839844	10674.125000	1613.687134	4.810187
630.544556	1122.174561	10517.020508	1562.067017	4.682274
630.881104	1106.464233	10496.821289	1591.243652	5.162524
631.217590	1205.215576	10252.187500	1600.221069	4.366163
631.554077	1110.952881	10458.666992	1541.867920	4.609844
631.890381	1155.839844	10144.458984	1553.089722	4.419476
632.226746	1196.238159	10124.259766	1526.157471	3.695324
632.562988	1144.618164	9917.779297	1582.266235	4.988488
632.899292	1108.708496	9868.403320	1494.736572	4.406867
633.235474	1133.396362	9641.724609	1571.044434	5.143761
633.571533	1229.903442	9639.480469	1544.112305	3.736322
633.907654	1169.305908	9529.506836	1555.333984	4.617450
634.243652	1149.106812	9424.022461	1541.867920	4.746406
634.579651	1149.106812	9358.936523	1499.225342	4.264626
634.915588	1126.663330	9538.484375	1510.447021	4.562433
635.251465	1202.971191	9491.352539	1564.311401	4.359600
635.587341	1140.129395	9673.145508	1537.379272	4.655445
635.923096	1137.885010	9542.972656	1521.668823	4.566089
636.258850	1072.798950	9446.465820	1438.627808	4.368801
636.594482	1104.219849	9459.931641	1519.424438	4.969111
636.930176	1182.772095	9338.737305	1550.845337	4.512933
637.265808	1158.084229	9085.125977	1508.202637	4.416760
637.601318	1126.663330	9082.881836	1490.247925	4.569817
637.936768	1135.640747	8939.243164	1467.804443	4.256543
638.272217	1169.305908	8939.243164	1447.605225	3.581745
638.607666	1207.459839	8795.604492	1526.157471	4.199942
638.942871	1283.767822	8818.047852	1436.383545	2.025618
639.278259	1211.948608	8490.373047	1447.605225	3.237742
639.613525	1187.260742	8539.749023	1454.338257	3.632478
639.948608	1232.147705	8535.259766	1479.026123	3.380455
640.283813	1180.527710	8407.332031	1467.804443	3.975156
640.618896	1202.971191	8405.087891	1501.469604	4.144593
640.953979	1106.464233	8111.078125	1517.180054	5.863504
641.288879	1211.948608	8261.449219	1503.713989	4.138809
641.623840	1133.396362	8178.408691	1382.519165	3.536159
641.958801	1236.636475	8088.634766	1418.428711	2.653127
642.293640	1097.486816	7969.684082	1391.496582	4.278250
642.628418	1137.885010	7814.824219	1470.048706	4.974790
642.963135	1146.862427	7958.462402	1393.740845	3.624382
643.297791	1115.441528	7976.416992	1488.003540	5.430161
643.632446	1171.550293	7841.756348	1378.030396	3.095558
643.967041	1180.527710	7576.922852	1292.745117	1.754385
644.301636	1171.550293	7841.756348	1335.387817	2.456259
644.636047	1124.418945	7731.783203	1395.985229	4.110054
644.970520	1180.527710	7698.117676	1393.740845	3.271349
645.304932	1218.681641	7657.719727	1279.279053	0.941094
645.639282	1211.948608	7561.212402	1411.695679	3.145988
645.973511	1216.437256	7612.832520	1378.030396	2.526316
646.307800	1180.527710	7637.520508	1277.034668	1.494612
646.642090	1187.260742	7460.216797	1335.387817	2.361360
646.976135	1144.618164	7574.678711	1299.478271	2.408377
647.310242	1153.595459	7727.294434	1270.301636	1.775350
647.644287	1202.971191	7520.814453	1337.632202	2.131439
647.978271	1075.043335	7547.746582	1301.722534	3.502079
648.312256	1167.061646	7695.873535	1281.523438	1.753179
648.646118	1155.839844	7502.859375	1339.876465	2.899575
648.979980	1164.817261	7563.457031	1279.279053	1.788846
649.313721	1171.550293	7615.077148	1364.564331	2.995472
649.647522	1193.993774	7532.036133	1360.075684	2.620398
649.981201	1207.459839	7388.397461	1335.387817	2.069718
650.314819	1205.215576	7666.696777	1301.722534	1.493573
650.648438	1133.396362	7406.352539	1324.166016	3.041144
650.981934	1124.418945	7478.171875	1259.079956	2.119393
651.315430	1110.952881	7484.904785	1310.699951	3.133802
651.648865	1209.704224	7417.574219	1286.012085	1.229212
651.982300	1137.885010	7406.352539	1272.546021	2.148228
652.315613	1198.482544	7446.750977	1319.677368	1.939655
652.648926	1225.414673	7273.936035	1283.767822	0.964751
652.982178	1131.151978	7321.067383	1270.301636	2.248006
653.315308	1180.527710	7435.528809	1308.455566	2.045209
653.648499	1196.238159	7215.583008	1294.989502	1.640566
653.981567	1193.993774	7273.936035	1303.966919	1.808786
654.314636	1164.817261	7316.578613	1294.989502	2.116016
654.647522	1128.907715	7233.537598	1202.971191	1.213235
654.980530	1169.305908	7103.365234	1256.835571	1.475039
655.313416	1128.907715	7148.252441	1270.301636	2.348992
655.646240	1084.020630	6939.527832	1272.546021	3.219625
655.979065	1115.441528	7146.007813	1321.921753	3.423894
656.311768	1185.016357	7045.012207	1265.812988	1.378783
656.644470	1160.328613	6914.839844	1283.767822	2.145086
656.977112	1173.794678	6997.880859	1252.346924	1.348748
657.309692	1149.106812	6973.192871	1218.681641	1.194605
657.642273	1220.926025	7024.812988	1256.835571	0.618715
657.974670	1128.907715	6930.550293	1272.546021	2.475821
658.307129	1198.482544	6836.287598	1306.211304	1.910828
658.639465	1169.305908	7087.654785	1281.523438	1.896095
658.971802	1209.704224	6917.084473	1292.745117	1.454974
659.304138	1135.640747	7053.989746	1272.546021	2.313234
659.636353	1274.790405	7347.999512	1310.699951	0.591278
659.968567	1146.862427	7635.275879	1339.876465	2.974749
660.300659	1211.948608	7642.009277	1328.654785	1.815009
660.632690	1189.505127	7949.484863	1252.346924	0.929615
660.964722	1167.061646	7731.783203	1353.342651	2.837607
661.296753	1178.283325	7729.538574	1259.079956	1.233300
661.628723	1140.129395	7561.212402	1281.523438	2.202028
661.960510	1090.753784	7507.348145	1303.966919	3.322839
662.292358	1128.907715	7469.194336	1306.211304	2.796460
662.624084	1176.039063	7267.202637	1268.057373	1.510685
662.955872	1173.794678	7251.492188	1256.835571	1.366322
663.287537	1193.993774	7215.583008	1229.903442	0.596349
663.619141	1162.572876	7033.790527	1288.256470	2.140673
663.950745	1133.396362	6941.771973	1220.926025	1.506956
664.282227	1131.151978	6701.626953	1261.324219	2.336825
664.613708	1191.749390	6636.540527	1315.188599	2.267107
664.945068	1193.993774	6665.717285	1252.346924	1.066449
665.276489	1140.129395	6299.888184	1254.591187	2.218355
665.607849	1216.437256	6288.666504	1155.839844	-1.194690
665.939087	1119.930298	6315.598633	1263.568604	2.764578
666.270325	1155.839844	6228.069336	1209.704224	1.061947
666.601440	1160.328613	6268.467285	1220.926025	1.186291
666.932556	1171.550293	6304.376953	1241.125122	1.355488
667.263611	1158.084229	6223.580566	1193.993774	0.708905
667.594666	1171.550293	6207.870117	1288.256470	2.317291
667.925598	1162.572876	6048.520996	1261.324219	2.021130
668.256470	1193.993774	6133.806641	1281.523438	1.771923
668.587341	1124.418945	6219.091797	1308.455566	3.612334
668.918213	1133.396362	6216.847168	1247.858154	2.251655
669.248962	1151.351196	6118.096191	1297.233887	2.937189
669.579712	1209.704224	6086.675293	1223.170288	0.276115
669.910278	1158.084229	6120.340332	1229.903442	1.447310
670.240906	1178.283325	6203.381348	1243.369507	1.295222
670.571411	1133.396362	5965.480469	1180.527710	0.975383
670.901917	1198.482544	5969.968750	1205.215576	0.141110
671.232422	1090.753784	6192.159668	1256.835571	3.255608
671.562805	1200.726807	5934.059570	1176.039063	-0.521572
671.893127	1144.618164	5938.547852	1229.903442	1.779027
672.223450	1135.640747	5916.104492	1202.971191	1.408450
672.553650	1223.170288	5902.638672	1317.432983	2.014389
672.883850	1124.418945	5844.285645	1303.966919	3.804090
673.214050	1099.731079	5947.525391	1268.057373	3.472224
673.544067	1167.061646	5781.443848	1270.301636	2.237352
673.874146	1128.907715	5817.353027	1279.279053	3.207275
674.204163	1106.464233	5714.113281	1259.079956	3.312226
674.534058	1149.106812	5732.067871	1292.745117	3.134181
674.863953	1117.685913	5835.308105	1243.369507	2.664130
675.193726	1160.328613	5601.895508	1303.966919	3.233956
675.523560	1180.527710	5660.249023	1281.523438	2.254509
675.853333	1155.839844	5523.343262	1254.591187	2.261048
676.182983	1167.061646	5487.434082	1229.903442	1.454546
676.512634	1180.527710	5601.895508	1261.324219	1.827410
676.842163	1209.704224	5541.298340	1319.677368	2.538861
677.171692	1142.373779	5435.813965	1274.790405	3.084161
677.501160	1146.862427	5572.719238	1277.034668	2.941176
677.830627	1209.704224	5626.583496	1324.166016	2.591463
678.159973	1146.862427	5372.972168	1261.324219	2.708443
678.489258	1225.414673	5388.682617	1326.410400	2.425876
678.818542	1191.749390	5422.347656	1265.812988	1.750665
679.147705	1144.618164	5328.084961	1256.835571	2.682402
679.476929	1191.749390	5489.678223	1279.279053	2.036555
679.806030	1193.993774	5469.479004	1236.636475	0.997377
680.135071	1252.346924	5662.493164	1299.478271	1.068703
680.464111	1187.260742	5509.877441	1229.903442	0.986502
680.793091	1196.238159	5655.760254	1353.342651	3.522900
681.122009	1140.129395	5617.605957	1283.767822	3.208022
681.450806	1149.106812	5801.642578	1299.478271	3.232032
681.779602	1155.839844	5725.334961	1328.654785	3.781926
682.108398	1153.595459	5763.488770	1324.166016	3.700098
682.437012	1131.151978	5788.176758	1355.586914	4.819277
682.765747	1164.817261	5682.692383	1387.007813	4.918032
683.094299	1122.174561	5658.004395	1330.899048	4.601682
683.422913	1110.952881	5732.067871	1393.740845	6.119474
683.751343	1171.550293	5642.293945	1382.519165	4.718876
684.079773	1128.907715	5628.828125	1308.455566	3.990023
684.408203	1211.948608	5460.501465	1283.767822	1.690439
684.736511	1088.509399	5431.325195	1283.767822	4.496125
685.064819	1158.084229	5359.505859	1297.233887	3.311966
685.393005	1211.948608	5224.845215	1371.297363	3.970916
685.721252	1133.396362	5236.066895	1288.256470	3.774617
686.049377	1155.839844	5229.333496	1288.256470	3.250690
686.377441	1113.197266	5224.845215	1357.831299	5.949780
686.705505	1128.907715	5211.378906	1355.586914	5.552500
687.033386	1077.287598	4980.210938	1301.722534	5.750432
687.361328	1176.039063	4980.210938	1288.256470	2.949851
687.689148	1171.550293	5094.672852	1297.233887	3.203662
688.017029	1236.636475	5157.514648	1299.478271	1.602748
688.344849	1140.129395	5186.690918	1268.057373	3.161400
688.672546	1050.355469	5238.311035	1384.763428	7.984993
689.000183	1126.663330	5162.003418	1351.098267	5.561735
689.327759	1200.726807	5245.043945	1384.763428	4.550499
689.655334	1126.663330	5099.161621	1389.252197	6.610169
689.982849	1124.418945	4957.767578	1382.519165	6.733022
690.310303	1158.084229	4841.061523	1306.211304	4.021938
690.637695	1128.907715	4894.925781	1308.455566	4.767578
690.965088	1126.663330	4942.057129	1467.804443	8.941177
691.292419	1189.505127	4924.102051	1326.410400	3.665865
691.619568	1171.550293	4596.427246	1384.763428	6.225425
691.946838	1092.998047	4780.463867	1378.030396	7.729763
692.273926	1077.287598	4600.916016	1342.120850	7.515924
692.601013	1169.305908	4744.554199	1351.098267	5.084748
692.928040	1173.794678	4560.517578	1373.541748	5.897945
693.255005	1043.622437	4490.942871	1452.093994	11.848959
693.582031	1088.509399	4560.517578	1458.827026	10.665805
693.908813	1155.839844	4625.604004	1416.184326	7.503233
694.235718	1133.396362	4363.015137	1512.691406	11.744267
694.562500	1171.550293	4378.725586	1465.560059	9.167250
694.889160	1108.708496	4430.345215	1400.473877	8.783784
695.215881	1122.174561	4351.792969	1404.962646	8.756083
695.542480	1115.441528	4421.368164	1456.582642	10.319077
695.869080	1106.464233	4295.684570	1353.342651	7.741028
696.195496	1119.930298	4212.643555	1472.293091	11.393322
696.522034	1155.839844	4286.707031	1490.247925	10.681005
696.848511	1135.640747	4239.575684	1541.867920	13.087489
697.174744	1261.324219	4363.015137	1568.800171	9.913172
697.501099	1045.866699	4300.173340	1521.668823	14.620691
697.827332	1198.482544	4302.417480	1618.175781	13.521328
698.153564	1176.039063	4441.567383	1584.510620	12.508591
698.479675	1140.129395	4468.499512	1600.221069	13.823333
698.805786	1178.283325	4616.626465	1636.130615	13.315928
699.131836	1108.708496	4674.979492	1571.044434	12.964128
699.457764	1191.749390	4870.237793	1687.750610	13.483833
699.783752	1218.681641	5184.446777	1802.212402	14.714204
700.109619	1189.505127	5137.315430	1710.194092	13.189311
700.435547	1104.219849	5137.315430	1824.655884	17.863102
700.761230	1202.971191	4973.478027	1784.257690	15.416667
701.086975	1205.215576	5126.093750	1851.588135	16.485403
701.412659	1142.373779	5065.496094	1822.411621	17.334097
701.738281	1126.663330	4769.242188	1815.678589	18.915590
702.063843	1171.550293	4686.201172	1750.592407	16.475096
702.389343	1180.527710	4562.762207	1867.298584	20.305243
702.714844	1149.106812	4526.852539	1878.520264	21.594683
703.040283	1106.464233	4544.807129	1945.850830	24.412535
703.365601	1176.039063	4219.376465	1849.343750	22.123892
703.690918	1115.441528	4257.530273	1790.990723	21.500002
704.016174	1126.663330	4174.489746	1923.407349	26.141384
704.341431	1158.084229	4203.666016	1849.343750	22.697126
704.666504	1131.151978	4154.290527	1815.678589	22.642912
704.991638	1205.215576	4030.851318	1842.610718	22.557583
705.316650	1202.971191	3938.833008	1838.122070	23.215752
705.641663	1122.174561	3952.299072	1930.140381	28.548773
705.966553	1229.903442	3880.479736	1957.072510	27.434378
706.291443	1151.351196	3786.217285	1923.407349	29.301531
706.616272	1119.930298	3772.750977	1880.764648	28.680201
706.941040	1176.039063	3779.484131	1954.828247	29.913794
707.265808	1191.749390	3815.393799	1885.253418	26.432850
707.590454	1180.527710	3759.284912	1898.719482	27.850306
707.915100	1202.971191	3779.484131	2031.136108	32.142860
708.239685	1135.640747	3667.266602	1961.561279	32.624115
708.564148	1216.437256	3665.022217	1959.316895	30.339140
708.888672	1189.505127	3786.217285	2004.203857	31.374241
709.213013	1149.106812	3822.126709	2010.936890	32.241810
709.537415	1086.265015	3714.397949	1966.049927	33.475662
709.861694	1122.174561	3644.823242	2114.177002	39.323845
710.185913	1086.265015	3864.769287	1995.226440	32.714054
710.510132	1126.663330	3779.484131	2078.267334	35.871403
710.834229	1146.862427	3691.954590	2049.090820	35.449734
711.158386	1180.527710	3732.352783	2091.733398	35.707996
711.482422	1144.618164	3786.217285	2102.955322	36.278675
711.806396	1167.061646	3875.991211	2165.797119	36.868267
712.130371	1198.482544	3819.882324	2212.928467	38.698631
712.454224	1144.618164	3909.656494	2190.484863	37.824673
712.778076	1185.016357	3983.719971	2203.950928	36.407375
713.101746	1225.414673	3864.769287	2271.281494	39.625858
713.425537	1104.219849	3757.040527	2208.439697	41.624367
713.749207	1198.482544	3806.416260	2132.131836	35.800346
714.072815	1115.441528	3768.262451	2172.530029	39.847717
714.396362	1122.174561	3923.122559	2230.883057	39.583332
714.719849	1225.414673	3777.239746	2239.860596	39.753738
715.043335	1173.794678	3732.352783	2293.724854	43.771927
715.366699	1155.839844	3673.999756	2269.037109	44.206776
715.690063	1169.305908	3667.266602	2253.326660	43.396229
716.013367	1173.794678	3792.950195	2185.996094	38.646099
716.336609	1155.839844	3721.131104	2233.127441	41.994747
716.659790	1131.151978	3649.311768	2201.706543	42.513371
716.982910	1142.373779	3640.334473	2309.435303	46.720573
717.306030	1256.835571	3656.044922	2302.702393	43.592144
717.628967	1243.369507	3727.864014	2300.458008	42.547424
717.952026	1256.835571	3555.049316	2266.792725	43.945309
718.274902	1220.926025	3564.026611	2255.571045	44.157089
718.597778	1202.971191	3433.854248	2248.837891	46.881287
718.920593	1196.238159	3489.963135	2266.792725	46.673183
719.243347	1191.749390	3431.610107	2219.661377	45.891781
719.566040	1160.328613	3395.700439	2221.905762	47.489960
719.888672	1236.636475	3454.053467	2235.371826	45.040485
720.211304	1135.640747	3267.772461	2163.552734	48.210526
720.533875	1131.151978	3368.768311	2291.480469	51.855564
720.856323	1169.305908	3218.396729	2145.597900	47.645130
721.178772	1155.839844	3229.618652	2208.439697	50.757576
721.501160	1135.640747	3160.043701	2089.489258	47.117523
721.823486	1209.704224	3133.111572	2275.770020	55.425900
722.145813	1189.505127	3160.043701	2156.819580	49.088837
722.468018	1198.482544	3110.667969	2199.462158	52.347412
722.790161	1193.993774	3202.686279	2145.597900	47.374306
723.112305	1144.618164	3108.423584	2058.068359	46.514294
723.434326	1232.147705	3077.002930	2251.082275	55.231140
723.756348	1216.437256	3155.554932	2116.421387	46.412045
724.078308	1153.595459	3045.582031	2096.222168	49.822060
724.400208	1173.794678	2973.762695	2161.308350	54.862846
724.722046	1142.373779	3005.183594	2179.263184	55.662655
725.043884	1178.283325	2964.785400	2156.819580	54.773865
725.365540	1209.704224	3074.758545	2120.909912	48.856792
725.687256	1124.418945	2987.228760	2199.462158	57.710842
726.008850	1182.772095	3011.916748	2242.104980	57.914112
726.330444	1077.287598	2883.988770	2170.285645	60.496891
726.651978	1173.794678	2917.654053	2192.729248	58.429859
726.973450	1200.726807	2919.898438	2134.376221	54.308098
727.294922	1119.930298	2901.943604	2257.815430	63.853909
727.616211	1115.441528	3005.183594	2152.330811	54.869354
727.937622	1158.084229	2955.807861	2132.131836	54.182278
728.258789	1187.260742	2944.586182	2212.928467	58.365269
728.580017	1117.685913	3011.916748	2230.883057	58.767765
728.901245	1113.197266	3009.672363	2221.905762	58.461536
729.222290	1146.862427	3101.690674	2316.168457	59.816307
729.543335	1160.328613	3061.292480	2298.213623	59.858318
729.864258	1209.704224	2926.631348	2237.616211	59.869286
730.185242	1200.726807	2982.740234	2237.616211	58.186398
730.506165	1169.305908	3056.803711	2251.082275	57.312721
730.826965	1144.618164	2987.228760	2242.104980	59.561516
731.147705	1144.618164	2951.319336	2219.661377	59.503101
731.468445	1234.392090	3077.002930	2336.367676	59.805119
731.789124	1142.373779	3081.491455	2280.258789	58.680553
732.109680	1126.663330	2984.984375	2170.285645	56.159420
732.430237	1189.505127	3088.224609	2239.860596	55.319149
732.750793	1158.084229	3139.844482	2295.969238	57.417896
733.071167	1220.926025	3000.694824	2302.702393	60.781849
733.391602	1182.772095	3112.912354	2199.462158	52.674412
733.711914	1144.618164	3032.115723	2219.661377	56.956005
734.032227	1124.418945	2993.961914	2251.082275	60.264103
734.352417	1144.618164	3032.115723	2320.657227	62.306786
734.672607	1209.704224	3106.179443	2280.258789	56.449699
734.992798	1124.418945	3133.111572	2134.376221	50.279335
735.312805	1218.681641	3043.337646	2253.326660	56.703568
735.632874	1167.061646	3005.183594	2266.792725	59.829060
735.952759	1241.125122	2899.699219	2125.398682	53.315289
736.272705	1180.527710	2827.880127	2237.616211	64.168938
736.592468	1158.084229	2897.454834	2208.439697	60.387100
736.912354	1207.459839	2765.038330	2159.063965	61.095100
737.232056	1164.817261	2821.146973	2141.109131	58.943089
737.551758	1254.591187	2827.880127	2280.258789	65.192574
737.871460	1128.907715	2830.124512	2194.973633	62.664906
738.190979	1160.328613	2686.486084	2177.018799	66.617645
738.510559	1155.839844	2836.857422	2246.593506	64.886513
738.830017	1180.527710	2832.368652	2325.145752	69.293480
739.149414	1216.437256	2756.060791	2264.548340	68.075806
739.468811	1167.061646	2722.395508	2136.620361	62.337658
739.788086	1218.681641	2729.128662	2190.484863	64.338783
740.107300	1176.039063	2751.572266	2253.326660	68.376068
740.426514	1115.441528	2888.477539	2219.661377	62.278477
740.745667	1254.591187	2724.639893	2275.770020	69.465645
741.064819	1124.418945	2720.151367	2201.706543	67.510544
741.383789	1191.749390	2733.617432	2156.819580	62.590973
741.702820	1122.174561	2740.350342	2123.154297	61.858528
742.021667	1124.418945	2542.847656	2058.068359	65.822792
742.340576	1092.998047	2661.798096	2087.244873	63.376263
742.659363	1178.283325	2661.798096	2100.710938	62.178524
742.978149	1151.351196	2589.979004	2033.380371	61.310448
743.296875	1133.396362	2554.069336	2120.909912	69.510262
743.615479	1151.351196	2585.490234	2017.669922	60.406887
743.934082	1207.459839	2563.046875	2055.823975	62.582787
744.252625	1131.151978	2515.915527	2129.887451	72.123177
744.571106	1140.129395	2520.404297	2064.801270	66.991859
744.889526	1153.595459	2576.512939	2053.579590	63.249214
745.207947	1193.993774	2524.892822	2055.823975	64.755493
745.526306	1149.106812	2536.114746	2044.602173	64.563103
745.844482	1200.726807	2475.517334	2022.158691	64.436615
746.162781	1137.885010	2646.087646	2051.335205	60.565483
746.480896	1135.640747	2518.159912	2062.556885	67.045448
746.799011	1171.550293	2349.833740	2035.624756	73.333328
747.117065	1124.418945	2401.453613	1943.606445	64.147629
747.435059	1173.794678	2334.123291	1945.850830	66.537712
747.752991	1151.351196	2446.340576	2019.914307	67.071060
748.070862	1079.531982	2358.811035	2013.181274	72.982460
748.388733	1202.971191	2340.856201	2062.556885	75.542404
748.706482	1216.437256	2358.811035	1979.515991	66.797638
749.024231	1205.215576	2354.322266	1972.782959	66.796875
749.341919	1229.903442	2374.521484	1930.140381	61.176472
749.659485	1151.351196	2432.874512	1957.072510	62.872154
749.977112	1146.862427	2349.833740	1952.583862	66.977608
750.294556	1193.993774	2392.476318	1914.429932	60.112362
750.612000	1092.998047	2327.390137	1945.850830	69.090912
750.929382	1182.772095	2336.367676	2017.669922	72.373528
751.246765	1167.061646	2336.367676	1992.982178	70.633392
751.564026	1140.129395	2365.544189	1970.538574	67.765556
751.881226	1155.839844	2318.412842	1867.298584	61.196911
752.198425	1135.640747	2457.562500	1939.117798	60.780983
752.515503	1149.106812	2266.792725	1916.674194	68.674698
752.832581	1155.839844	2298.213623	1992.982178	73.280945
753.149597	1193.993774	2311.679688	1896.475098	62.851406
753.466553	1169.305908	2280.258789	1930.140381	68.484856
753.783508	1167.061646	2269.037109	1934.629028	69.653763
754.100281	1214.192993	2403.697998	1957.072510	62.452827
754.417114	1187.260742	2313.924072	1820.167236	56.175301
754.733765	1106.464233	2284.747559	1874.031616	65.142853
755.050537	1099.731079	2194.973633	1903.208130	73.360649
755.367126	1214.192993	2284.747559	1952.583862	68.972748
755.683716	1119.930298	2271.281494	1932.384644	70.565292
756.000244	1252.346924	2329.634521	1912.185547	61.249996
756.316650	1158.084229	2226.394531	1894.230713	68.907555
756.633057	1142.373779	2190.484863	1896.475098	71.948608
756.949402	1180.527710	2338.611816	1835.877686	56.589153
757.265686	1223.170288	2260.059570	1912.185547	66.450226
757.581970	1202.971191	2161.308350	1948.095093	77.751747
757.898071	1202.971191	2170.285645	1880.764648	70.069611
758.214233	1173.794678	2289.236328	1896.475098	64.788727
758.530273	1124.418945	2248.837891	1930.140381	71.656693
758.846313	1220.926025	2302.702393	1909.941162	63.692936
759.162231	1200.726807	2269.037109	1889.742065	64.495796
759.478210	1131.151978	2255.571045	1945.850830	72.455093
759.794067	1110.952881	2185.996094	1986.249023	81.419624
760.109802	1191.749390	2257.815430	1883.009033	64.842102
760.425598	1149.106812	2194.973633	1900.963867	71.888412
760.741211	1205.215576	2228.638916	1941.362061	71.929810
761.056885	1079.531982	2163.552734	1912.185547	76.811592
761.372437	1088.509399	2226.394531	1808.945435	63.313599
761.687927	1124.418945	2291.480469	1907.696899	67.115395
762.003418	1149.106812	2212.928467	1822.411621	63.291138
762.318787	1176.039063	2300.458008	1844.855103	59.481037
762.634155	1223.170288	2224.150146	1876.276001	65.246635
762.949463	1214.192993	2275.770020	1797.723755	54.968292
763.264648	1160.328613	2266.792725	1840.366333	61.460442
763.579834	1171.550293	2271.281494	1883.009033	64.693878
763.894958	1207.459839	2347.589355	2008.692627	70.275597
764.210022	1223.170288	2471.028564	1950.339478	58.273380
764.525024	1162.572876	2565.291260	1992.982178	59.200001
764.840027	1128.907715	2639.354736	2100.710938	64.338783
765.154907	1196.238159	2713.418213	2132.131836	61.686394
765.469788	1131.151978	2657.309570	2091.733398	62.941170
765.784607	1164.817261	2497.960693	1997.470825	62.457912
766.099304	1155.839844	2441.852051	2042.357788	68.935425
766.414001	1151.351196	2506.937988	1988.493408	61.754971
766.728577	1133.396362	2419.408447	2028.891724	69.633507
767.043213	1187.260742	2466.539795	1894.230713	55.263157
767.357666	1084.020630	2370.032715	1923.407349	65.270515
767.672180	1176.039063	2318.412842	1959.316895	68.565811
767.986572	1205.215576	2376.765869	1966.049927	64.942528
768.300903	1131.151978	2246.593506	1932.384644	71.830986
768.615234	1158.084229	2190.484863	1874.031616	69.347824
768.929443	1171.550293	2237.616211	1896.475098	68.000000
769.243591	1169.305908	2269.037109	1918.918579	68.163261
769.557739	1162.572876	2145.597900	1813.434204	66.210045
769.871826	1151.351196	2118.665771	1833.633301	70.533630
770.185852	1173.794678	2123.154297	1748.348022	60.520096
770.499756	1155.839844	2134.376221	1815.678589	67.431190
770.813660	1149.106812	2076.022949	1804.456787	70.702187
771.127502	1117.685913	2093.977783	1734.881958	63.218395
771.441284	1113.197266	2071.534424	1721.415894	63.466038
771.755005	1164.817261	2049.090820	1689.994995	59.390865
772.068665	1135.640747	2071.534424	1681.017578	58.273376
772.382385	1140.129395	2013.181274	1782.013306	73.521851
772.695862	1202.971191	1990.737793	1748.348022	69.230766
773.009460	1153.595459	2062.556885	1768.547241	67.654335
773.322815	1070.554565	1950.339478	1719.171509	73.724487
773.636230	1128.907715	1961.561279	1721.415894	71.159027
773.949585	1140.129395	1907.696899	1667.551514	68.713448
774.262817	1160.328613	1876.276001	1761.814209	84.012543
774.576111	1155.839844	1939.117798	1755.081055	76.504288
774.889221	1223.170288	1934.629028	1633.886230	57.728710
775.202393	1113.197266	1914.429932	1750.592407	79.551819
775.515381	1182.772095	1921.162964	1687.750610	68.389053
775.828430	1155.839844	1898.719482	1705.705444	74.018127
776.141418	1104.219849	1945.850830	1658.574097	65.866661
776.454285	1178.283325	1820.167236	1663.062744	75.524467
776.767151	1198.482544	1844.855103	1604.709717	62.847218
777.079895	1189.505127	1912.185547	1647.352295	63.354031
777.392639	1104.219849	1887.497681	1739.370605	81.088821
777.705200	1133.396362	1770.791504	1611.442749	75.000008
778.017883	1171.550293	1775.280273	1580.021851	67.657990
778.330444	1182.772095	1874.031616	1638.375000	65.909096
778.642944	1160.328613	1885.253418	1669.795776	70.278625
778.955383	1164.817261	1894.230713	1573.288818	56.000004
779.267700	1247.858154	1773.035889	1611.442749	69.230774
779.580078	1140.129395	1871.787231	1586.754883	61.042946
779.892273	1140.129395	1900.963867	1557.578369	54.867252
780.204529	1137.885010	1880.764648	1580.021851	59.516617
780.516724	1144.618164	1833.633301	1651.841064	73.615639
780.828796	1149.106812	1847.099365	1600.221069	64.630241
781.140869	1198.482544	1835.877686	1611.442749	64.788727
781.452820	1189.505127	1779.768921	1611.442749	71.482887
781.764771	1297.233887	1750.592407	1528.401855	50.990101
782.076721	1200.726807	1835.877686	1537.379272	53.003544
782.388489	1250.102539	1768.547241	1582.266235	64.069260
782.700195	1185.016357	1874.031616	1573.288818	56.351795
783.011963	1214.192993	1849.343750	1636.130615	66.431099
783.323547	1182.772095	1716.927124	1602.465332	78.571426
783.635193	1164.817261	1831.389038	1602.465332	65.656555
783.946716	1128.907715	1840.366333	1586.754883	64.353310
784.258179	1133.396362	1811.189819	1546.356567	60.927147
784.569580	1115.441528	1746.103760	1611.442749	78.647682
784.880981	1135.640747	1757.325439	1530.646240	63.537914
785.192261	1189.505127	1790.990723	1562.067017	61.940285
785.503540	1171.550293	1750.592407	1517.180054	59.689919
785.814758	1180.527710	1777.524658	1611.442749	72.180443
786.125854	1167.061646	1782.013306	1571.044434	65.693420
786.437012	1149.106812	1759.569824	1571.044434	69.117638
786.747986	1108.708496	1743.859375	1546.356567	68.904587
787.059021	1173.794678	1707.949829	1600.221069	79.831932
787.369873	1137.885010	1629.397583	1535.134888	80.821915
787.680725	1140.129395	1777.524658	1580.021851	69.014076
787.991516	1153.595459	1779.768921	1467.804443	50.179226
788.302246	1146.862427	1806.701172	1627.153198	72.789116
788.612976	1207.459839	1764.058472	1575.533203	66.129044
788.923584	1164.817261	1748.348022	1573.288818	70.000008
789.234131	1164.817261	1813.434204	1595.732300	66.435982
789.544678	1153.595459	1770.791504	1573.288818	68.000008
789.855103	1117.685913	1840.366333	1492.492188	51.863350
790.165588	1158.084229	1856.076782	1571.044434	59.163986
790.475891	1200.726807	1867.298584	1555.333984	53.198650
790.786194	1241.125122	1817.922852	1512.691406	47.081718
791.096375	1117.685913	1799.968140	1571.044434	66.447357
791.406555	1211.948608	1714.682861	1517.180054	60.714272
791.716675	1084.020630	1826.900269	1510.447021	57.401814
792.026733	1196.238159	1775.280273	1519.424438	55.813950
792.336731	1225.414673	1746.103760	1541.867920	60.775856
792.646667	1142.373779	1815.678589	1564.311401	62.666656
792.956604	1225.414673	1817.922852	1514.935791	48.863647
793.266418	1176.039063	1770.791504	1544.112305	61.886799
793.576172	1144.618164	1721.415894	1512.691406	63.813225
793.885925	1209.704224	1665.307129	1562.067017	77.339890
794.195557	1178.283325	1725.904541	1559.822754	69.672142
794.505249	1247.858154	1672.040161	1499.225342	59.259277
794.814697	1196.238159	1685.506226	1492.492188	60.550453
795.124207	1097.486816	1687.750610	1514.935791	70.722443
795.433655	1171.550293	1654.085449	1557.578369	79.999992
795.742981	1151.351196	1790.990723	1505.958374	55.438599
796.052307	1113.197266	1719.171509	1510.447021	65.555550
796.361572	1364.564331	1826.900269	1654.085449	62.621376
796.670776	1097.486816	1604.709717	1492.492188	77.876091
796.979919	1211.948608	1629.397583	1582.266235	88.709671
797.289063	1149.106812	1663.062744	1512.691406	70.742371
797.598083	1142.373779	1764.058472	1463.315674	51.624546
797.907043	1191.749390	1678.773193	1584.510620	80.645180
798.215942	1101.975464	1663.062744	1438.627808	59.999996
798.524841	1081.776367	1710.194092	1463.315674	60.714283
798.833618	1153.595459	1714.682861	1564.311401	73.199997
799.142334	1104.219849	1672.040161	1526.157471	74.308304
799.451050	1115.441528	1703.461060	1532.890503	70.992363
799.759644	1133.396362	1658.574097	1514.935791	72.649582
800.068237	1160.328613	1667.551514	1548.600952	76.548660
800.376770	1158.084229	1728.148926	1496.980957	59.448818
800.685242	1193.993774	1703.461060	1517.180054	63.436119
800.993652	1144.618164	1696.728027	1526.157471	69.105682
801.301941	1185.016357	1698.972412	1481.270508	57.641922
801.610291	1144.618164	1696.728027	1528.401855	69.512199
801.918457	1146.862427	1638.375000	1539.623535	79.908661
802.226624	1133.396362	1609.198364	1528.401855	83.018883
802.534790	1135.640747	1642.863647	1472.293091	66.371674
802.842773	1216.437256	1559.822754	1429.650513	62.091515
803.150818	1117.685913	1660.818481	1481.270508	66.942146
803.458740	1207.459839	1638.375000	1429.650513	51.562511
803.766663	1095.242432	1638.375000	1418.428711	59.504124
804.074463	1140.129395	1710.194092	1483.514893	60.236233
804.382202	1223.170288	1654.085449	1573.288818	81.249992
804.689941	1101.975464	1584.510620	1557.578369	94.418594
804.997559	1216.437256	1618.175781	1447.605225	57.541897
805.305176	1155.839844	1606.954102	1467.804443	69.154228
805.612732	1135.640747	1633.886230	1483.514893	69.819832
805.920227	1187.260742	1584.510620	1488.003540	75.706200
806.227600	1135.640747	1701.216675	1479.026123	60.714283
806.534973	1243.369507	1651.841064	1523.913086	68.681297
806.842285	1153.595459	1642.863647	1447.605225	60.091740
807.149475	1198.482544	1683.261963	1440.872192	49.999989
807.456726	1220.926025	1658.574097	1505.958374	65.128212
807.763855	1128.907715	1640.619263	1404.962646	53.947372
808.070923	1135.640747	1660.818481	1508.202637	70.940155
808.377991	1131.151978	1584.510620	1488.003540	78.712860
808.684937	1191.749390	1705.705444	1351.098267	31.004377
808.991821	1099.731079	1526.157471	1384.763428	66.842102
809.298645	1124.418945	1575.533203	1425.161743	66.666656
809.605469	1182.772095	1658.574097	1485.759155	63.679234
809.912170	1128.907715	1595.732300	1440.872192	66.826920
810.218811	1214.192993	1638.375000	1458.827026	57.671951
810.525513	1180.527710	1553.089722	1467.804443	77.108437
810.832031	1119.930298	1573.288818	1501.469604	84.158409
811.138550	1162.572876	1517.180054	1420.673096	72.784828
811.444946	1178.283325	1651.841064	1369.052979	40.284348
811.751343	1167.061646	1582.266235	1375.786133	50.270275
812.057678	1185.016357	1651.841064	1479.026123	62.980762
812.363892	1229.903442	1537.379272	1391.496582	52.554745
812.670105	1191.749390	1537.379272	1382.519165	55.194817
812.976257	1180.527710	1517.180054	1387.007813	61.333332
813.282349	1182.772095	1564.311401	1449.849609	70.000000
813.588379	1198.482544	1476.781860	1366.808716	60.483860
813.894409	1146.862427	1532.890503	1382.519165	61.046528
814.200256	1185.016357	1541.867920	1389.252197	57.232716
814.506165	1108.708496	1517.180054	1355.586914	60.439560
814.811951	1176.039063	1519.424438	1346.609497	49.673180
815.117676	1137.885010	1521.668823	1357.831299	57.309944
815.423401	1153.595459	1537.379272	1409.451294	66.666656
815.729004	1182.772095	1494.736572	1425.161743	77.697838
816.034607	1167.061646	1521.668823	1378.030396	59.493649
816.340149	1176.039063	1510.447021	1418.428711	72.483215
816.645508	1151.351196	1512.691406	1301.722534	41.614891
816.950989	1117.685913	1557.578369	1431.894775	71.428566
817.256226	1153.595459	1514.935791	1445.360962	80.745346
817.561523	1119.930298	1483.514893	1422.917358	83.333305
817.866760	1104.219849	1514.935791	1360.075684	62.295082
818.171936	1185.016357	1568.800171	1333.143433	38.596489
818.477051	1171.550293	1526.157471	1395.985229	63.291142
818.782043	1162.572876	1588.999268	1310.699951	34.736847
819.087036	1185.016357	1580.021851	1362.319946	44.886360
819.391907	1135.640747	1571.044434	1268.057373	30.412380
819.696838	1124.418945	1517.180054	1335.387817	53.714298
820.001587	1153.595459	1604.709717	1427.406128	60.696522
820.306396	1155.839844	1600.221069	1395.985229	54.040398
820.611145	1146.862427	1541.867920	1456.582642	78.409088
820.915710	1193.993774	1555.333984	1481.270508	79.503120
821.220276	1126.663330	1591.243652	1404.962646	59.903381
821.524780	1160.328613	1609.198364	1418.428711	57.499996
821.829285	1162.572876	1627.153198	1454.338257	62.801926
822.133667	1160.328613	1703.461060	1463.315674	55.785114
822.438049	1173.794678	1808.945435	1539.623535	57.597168
822.742371	1178.283325	1811.189819	1678.773193	79.078011
823.046570	1162.572876	2049.090820	1730.393311	64.050644
823.350708	1142.373779	2396.965088	1943.606445	63.864037
823.654785	1214.192993	2699.952148	2118.665771	60.876137
823.958862	1115.441528	2982.740234	2302.702393	63.581734
824.262878	1193.993774	3047.826172	2363.299805	63.075066
824.566772	1131.151978	2982.740234	2345.344971	65.575752
824.870667	1243.369507	2877.255615	2331.878906	66.620888
825.174438	1140.129395	2785.237305	2221.905762	65.757164
825.478210	1198.482544	2601.200684	2269.037109	76.320007
825.781921	1084.020630	2686.486084	2181.507568	68.487404
826.085571	1135.640747	2522.648438	2062.556885	66.828476
826.389160	1131.151978	2509.182373	2067.045654	67.915314
826.692688	1092.998047	2444.096436	2087.244873	73.588043
826.996094	1077.287598	2563.046875	1896.475098	55.135952
827.299500	1317.432983	2643.843506	2125.398682	60.913696
827.602905	1110.952881	2444.096436	1990.737793	65.993263
827.906128	1207.459839	2392.476318	2040.113403	70.265144
828.209412	1173.794678	2401.453613	1995.226440	66.910423
828.512573	1169.305908	2488.983398	1950.339478	59.183670
828.815613	1151.351196	2405.942383	1988.493408	66.726295
829.118713	1119.930298	2405.942383	1979.515991	66.841187
829.421692	1209.704224	2282.503174	1925.651611	66.736397
829.724670	1164.817261	2197.218018	1804.456787	61.956516
830.027527	1158.084229	2098.466553	1788.746338	67.064438
830.330322	1189.505127	2053.579590	1672.040161	55.844151
830.633118	1223.170288	2031.136108	1692.239380	58.055561
830.935791	1187.260742	1918.918579	1580.021851	53.680981
831.238464	1149.106812	1826.900269	1613.687134	68.543053
831.540955	1250.102539	1824.655884	1613.687134	63.281261
831.843567	1198.482544	1838.122070	1555.333984	55.789459
832.146057	1131.151978	1750.592407	1588.999268	73.913048
832.448364	1236.636475	1739.370605	1611.442749	74.553574
832.750793	1193.993774	1728.148926	1458.827026	49.579838
833.052979	1160.328613	1678.773193	1512.691406	67.965370
833.355225	1104.219849	1624.908813	1456.582642	67.672417
833.657410	1106.464233	1559.822754	1420.673096	69.306931
833.959534	1126.663330	1636.130615	1476.781860	68.722473
834.261597	1155.839844	1640.619263	1496.980957	70.370377
834.563538	1171.550293	1600.221069	1402.718262	53.926693
834.865540	1119.930298	1633.886230	1512.691406	76.419220
835.167358	1142.373779	1654.085449	1458.827026	61.842102
835.469177	1144.618164	1788.746338	1544.112305	62.020908
835.770935	1196.238159	1705.705444	1546.356567	68.722450
836.072632	1133.396362	1683.261963	1530.646240	72.244904
836.374268	1202.971191	1732.637573	1503.713989	56.779667
836.675842	1144.618164	1654.085449	1514.935791	72.687225
836.977356	1191.749390	1829.144653	1588.999268	62.323944
837.278809	1182.772095	1622.664551	1384.763428	45.918343
837.580200	1225.414673	1555.333984	1496.980957	82.312943
837.881470	1164.817261	1631.641846	1445.360962	60.096172
838.182800	1104.219849	1640.619263	1463.315674	66.945602
838.484070	1131.151978	1557.578369	1364.564331	54.736847
838.785217	1140.129395	1541.867920	1431.894775	72.625694
839.086365	1185.016357	1627.153198	1355.586914	38.578678
839.387329	1164.817261	1523.913086	1425.161743	72.500000
839.688293	1088.509399	1494.736572	1378.030396	71.270714
839.989258	1140.129395	1452.093994	1418.428711	89.208618
840.290100	1128.907715	1530.646240	1328.654785	49.720665
840.590942	1187.260742	1510.447021	1378.030396	59.027771
840.891663	1153.595459	1429.650513	1382.519165	82.926834
841.192383	1220.926025	1521.668823	1366.808716	48.507458
841.492920	1182.772095	1387.007813	1375.786133	94.505524
841.793518	1225.414673	1443.116577	1398.229614	79.381454
842.094116	1117.685913	1416.184326	1348.853882	77.443619
842.394470	1200.726807	1481.270508	1315.188599	40.799988
842.694885	1178.283325	1445.360962	1357.831299	67.226883
842.995178	1207.459839	1445.360962	1294.989502	36.792454
843.295471	1119.930298	1366.808716	1335.387817	87.272720
843.595642	1153.595459	1474.537476	1362.319946	65.034950
843.895874	1243.369507	1413.940063	1342.120850	57.894718
844.195984	1117.685913	1440.872192	1321.921753	63.194466
844.495911	1369.052979	1824.655884	1606.954102	52.216770
844.795898	1155.839844	1456.582642	1324.166016	55.970142
845.095825	1216.437256	1404.962646	1281.523438	34.523827
845.395691	1169.305908	1420.673096	1306.211304	54.464306
845.695435	1099.731079	1391.496582	1274.790405	60.000008
845.995178	1133.396362	1357.831299	1281.523438	66.000008
846.294922	1162.572876	1360.075684	1326.410400	82.954529
846.594482	1167.061646	1326.410400	1236.636475	43.661983
846.894104	1124.418945	1387.007813	1247.858154	47.008545
847.193542	1095.242432	1250.102539	1281.523438	120.289856
847.492981	1110.952881	1312.944336	1281.523438	84.444443
847.792358	1180.527710	1306.211304	1259.079956	62.500000
848.091675	1214.192993	1319.677368	1247.858154	31.914831
848.390930	1243.369507	1306.211304	1245.613770	3.571290
848.690063	1185.016357	1382.519165	1220.926025	18.181852
848.989197	1097.486816	1290.500854	1263.568604	86.046478
849.288269	1162.572876	1330.899048	1236.636475	44.000050
849.587341	1169.305908	1301.722534	1241.125122	54.237309
849.886353	1155.839844	1279.279053	1283.767822	103.636421
850.185181	1180.527710	1288.256470	1200.726807	18.749958
850.484009	1160.328613	1371.297363	1225.414673	30.851044
850.782715	1140.129395	1236.636475	1263.568604	127.906891
851.081543	1124.418945	1227.659058	1185.016357	58.695610
851.380127	1153.595459	1279.279053	1133.396362	-16.071386
851.678711	1097.486816	1283.767822	1216.437256	63.855377
851.977295	1133.396362	1277.034668	1259.079956	87.500053
852.275757	1124.418945	1303.966919	1261.324219	76.249969
852.574158	1128.907715	1286.012085	1259.079956	82.857178
852.872437	1180.527710	1301.722534	1207.459839	22.222178
853.170837	1133.396362	1252.346924	1216.437256	69.811264
853.468994	1167.061646	1263.568604	1241.125122	76.744186
853.767212	1140.129395	1250.102539	1277.034668	124.489731
854.065369	1151.351196	1259.079956	1297.233887	135.416656
854.363403	1155.839844	1277.034668	1270.301636	94.444458
854.661377	1144.618164	1232.147705	1180.527710	41.025631
854.959290	1140.129395	1259.079956	1200.726807	50.943359
855.257202	1122.174561	1281.523438	1207.459839	53.521103
855.554993	1137.885010	1324.166016	1211.948608	39.759071
855.852722	1153.595459	1335.387817	1229.903442	41.975353
856.150452	1160.328613	1299.478271	1232.147705	51.612843
856.448059	1122.174561	1270.301636	1283.767822	109.090965
856.745667	1097.486816	1292.745117	1234.392090	70.114960
857.043152	1176.039063	1270.301636	1207.459839	33.333248
857.340637	1099.731079	1261.324219	1207.459839	66.666664
857.638000	1214.192993	1216.437256	1171.550293	-1900.076172
857.935303	1146.862427	1256.835571	1272.546021	114.285713
858.232666	1193.993774	1225.414673	1191.749390	-7.142968
858.529785	1149.106812	1236.636475	1259.079956	125.640999
858.826965	1171.550293	1283.767822	1146.862427	-22.000010
859.124023	1180.527710	1277.034668	1250.102539	72.093071
859.421082	1214.192993	1333.143433	1234.392090	16.981104
859.718079	1160.328613	1234.392090	1185.016357	33.333225
860.014893	1144.618164	1281.523438	1196.238159	37.704899
860.311768	1146.862427	1256.835571	1223.170288	69.387726
860.608582	1151.351196	1342.120850	1277.034668	65.882317
860.905334	1176.039063	1301.722534	1225.414673	39.285683
861.201904	1185.016357	1245.613770	1225.414673	66.666733
861.498535	1196.238159	1317.432983	1182.772095	-11.111089
861.795166	1158.084229	1270.301636	1279.279053	108.000023
862.091614	1153.595459	1274.790405	1250.102539	79.629623
862.388000	1077.287598	1308.455566	1144.618164	29.126253
862.684326	1135.640747	1281.523438	1211.948608	52.307686
862.980713	1108.708496	1223.170288	1142.373779	29.411808
863.276917	1149.106812	1290.500854	1142.373779	-4.761892
863.573120	1162.572876	1265.812988	1191.749390	28.260832
863.869263	1171.550293	1308.455566	1207.459839	26.229483
864.165283	1108.708496	1294.989502	1191.749390	44.578293
864.461304	1149.106812	1263.568604	1178.283325	25.490177
864.757263	1205.215576	1198.482544	1245.613770	-600.000000
865.053162	1140.129395	1259.079956	1169.305908	24.528269
865.348938	1126.663330	1254.591187	1274.790405	115.789536
865.644653	1250.102539	1225.414673	1200.726807	200.000000
865.940430	1133.396362	1223.170288	1158.084229	27.500040
866.236023	1198.482544	1286.012085	1223.170288	28.205042
866.531616	1182.772095	1261.324219	1232.147705	62.857128
866.827087	1176.039063	1277.034668	1261.324219	84.444420
867.122559	1149.106812	1229.903442	1245.613770	119.444283
867.418030	1113.197266	1286.012085	1220.926025	62.337685
867.713257	1151.351196	1236.636475	1205.215576	63.157887
868.008545	1160.328613	1238.880737	1146.862427	-17.142994
868.303772	1153.595459	1333.143433	1193.993774	22.500011
868.598938	1178.283325	1277.034668	1227.659058	50.000061
868.893982	1090.753784	1241.125122	1297.233887	137.313477
869.189026	1155.839844	1238.880737	1274.790405	143.243347
869.484009	1202.971191	1353.342651	1189.505127	-8.955199
869.778931	1160.328613	1202.971191	1346.609497	436.842438
870.073730	1162.572876	1227.659058	1243.369507	124.137917
870.368469	1196.238159	1189.505127	1247.858154	-766.667847
870.663269	1081.776367	1333.143433	1281.523438	79.464294
870.957886	1075.043335	1227.659058	1232.147705	102.941147
871.252502	1160.328613	1254.591187	1142.373779	-19.047680
871.547058	1153.595459	1229.903442	1189.505127	47.058861
871.841553	1113.197266	1180.527710	1178.283325	96.666611
872.135986	1128.907715	1279.279053	1180.527710	34.328346
872.430237	1209.704224	1232.147705	1198.482544	-49.999729
872.724609	1185.016357	1234.392090	1247.858154	127.272636
873.018860	1182.772095	1283.767822	1220.926025	37.777767
873.312988	1144.618164	1200.726807	1153.595459	15.999844
873.607117	1106.464233	1234.392090	1202.971191	75.438583
873.901123	1124.418945	1220.926025	1198.482544	76.744209
874.195190	1225.414673	1263.568604	1187.260742	-100.000000
874.489075	1144.618164	1218.681641	1200.726807	75.757507
874.782959	1160.328613	1308.455566	1229.903442	46.969730
875.076782	1153.595459	1254.591187	1241.125122	86.666702
875.370483	1149.106812	1216.437256	1241.125122	136.666718
875.664246	1122.174561	1193.993774	1209.704224	121.874992
875.957764	1182.772095	1236.636475	1200.726807	33.333183
876.251343	1106.464233	1185.016357	1256.835571	191.428741
876.544861	1099.731079	1227.659058	1207.459839	84.210480
876.838257	1155.839844	1312.944336	1223.170288	42.857109
877.131714	1117.685913	1218.681641	1196.238159	77.777794
877.424988	1144.618164	1283.767822	1218.681641	53.225769
877.718262	1225.414673	1238.880737	1223.170288	-16.666969
878.011414	1115.441528	1250.102539	1227.659058	83.333351
878.304565	1122.174561	1283.767822	1225.414673	63.888870
878.597595	1162.572876	1236.636475	1227.659058	87.878777
878.890625	1144.618164	1357.831299	1209.704224	30.526289
879.183594	1209.704224	1272.546021	1176.039063	-53.571289
879.476440	1196.238159	1245.613770	1209.704224	27.272705
879.769287	1155.839844	1205.215576	1198.482544	86.363678
880.062012	1167.061646	1281.523438	1187.260742	17.647020
880.354736	1214.192993	1299.478271	1182.772095	-36.842113
880.647461	1185.016357	1225.414673	1268.057373	205.555634
880.940002	1167.061646	1247.858154	1227.659058	75.000038
881.232483	1117.685913	1245.613770	1223.170288	82.456139
881.524902	1066.065918	1256.835571	1216.437256	78.823509
881.817383	1158.084229	1265.812988	1185.016357	24.999943
882.109680	1133.396362	1328.654785	1216.437256	42.528713
882.401917	1131.151978	1202.971191	1286.012085	215.624893
882.694153	1137.885010	1348.853882	1200.726807	29.787237
882.986328	1180.527710	1366.808716	1297.233887	62.650604
883.278442	1160.328613	1324.166016	1270.301636	67.123268
883.570374	1153.595459	1427.406128	1324.166016	62.295074
883.862366	1131.151978	1490.247925	1409.451294	77.499985
884.154236	1196.238159	1575.533203	1324.166016	33.727795
884.446106	1131.151978	1618.175781	1431.894775	61.751148
884.737915	1182.772095	1586.754883	1409.451294	56.111103
885.029602	1171.550293	1602.465332	1465.560059	68.229172
885.321228	1117.685913	1615.931396	1440.872192	64.864868
885.612793	1133.396362	1615.931396	1339.876465	42.790695
885.904358	1223.170288	1602.465332	1485.759155	69.230766
886.195801	1117.685913	1600.221069	1425.161743	63.720917
886.487244	1167.061646	1539.623535	1492.492188	87.349388
886.778564	1173.794678	1568.800171	1375.786133	51.136368
887.069885	1133.396362	1550.845337	1488.003540	84.946236
887.361145	1153.595459	1568.800171	1404.962646	60.540543
887.652222	1171.550293	1407.207031	1404.962646	99.047607
887.943359	1193.993774	1429.650513	1364.564331	72.380936
888.234436	1153.595459	1382.519165	1355.586914	88.235275
888.525330	1122.174561	1481.270508	1382.519165	72.500015
888.816284	1144.618164	1342.120850	1279.279053	68.181801
889.107117	1101.975464	1369.052979	1263.568604	60.504211
889.397888	1084.020630	1299.478271	1252.346924	78.125008
889.688599	1088.509399	1290.500854	1225.414673	67.777756
889.979309	1162.572876	1328.654785	1247.858154	51.351334
890.269897	1117.685913	1317.432983	1297.233887	89.887665
890.560425	1140.129395	1335.387817	1281.523438	72.413803
890.850891	1144.618164	1342.120850	1303.966919	80.681816
891.141296	1178.283325	1288.256470	1196.238159	16.326563
891.431702	1097.486816	1355.586914	1236.636475	53.913059
891.721924	1155.839844	1256.835571	1211.948608	55.555584
>>>>>End Processed Spectral Data<<<<<
